Fichero De Datos De SpectraSuite
++++++++++++++++++++++++++++++++++++
Fecha: Wed Apr 22 08:10:14 CEST 2009
Usuario: evoflor
Presente Oscuro Del Espectro: Sí
La Referencia de Presente Del Espectro De: Sí
Muestreados de los componentes de Número de espectros: 1
Espectrómetros: USB4F02353
Tiempo de integración (usec): 500000 (USB4F02353)
Promedio de Espectros Hechos un: 5 (USB4F02353)
El Alisar Del Furgón: 0 (USB4F02353)
Párrafo de de Corregir del la del del de Eléctrica del obscuridad: Sí (USB4F02353)
Estrobo/Lámpara Permitido: No (USB4F02353)
Correct for Detector Non-linearity: No (USB4F02353)
Párrafo de de Corregir del la del del de Externa del luz: No (USB4F02353)
Procesado del espectro de Número de pixeles en: 3648
>>>>> Comienza Data<<<<< Espectral Procesado Del EL
177,79	749,535
178,00	749,535
178,22	749,535
178,44	-8461,282
178,66	530,059
178,88	135,686
179,09	3096,401
179,31	171,836
179,53	-3490,815
179,75	282,469
179,96	0,310
180,18	212,937
180,40	-234,063
180,62	-143,494
180,83	-113,809
181,05	-741,151
181,27	-647,653
181,49	4,894
181,70	-315,799
181,92	342,099
182,14	192,254
182,36	-1695,606
182,58	203,738
182,79	-762,009
183,01	-12149,706
183,23	375,099
183,45	-64,834
183,66	186,899
183,88	711,426
184,10	735,077
184,32	833,016
184,53	-189,197
184,75	652,904
184,97	-207,723
185,18	1145,357
185,40	189,878
185,62	-733,745
185,84	1872,497
186,05	2579,351
186,27	-5991,389
186,49	-862,815
186,71	304,758
186,92	334,948
187,14	1261,669
187,36	281,019
187,58	642,960
187,79	-525,047
188,01	-1114,276
188,23	134,041
188,45	164,915
188,66	75,093
188,88	196,991
189,10	-291,386
189,31	-111,846
189,53	36,905
189,75	1108,197
189,97	105,217
190,18	1579,646
190,40	1233,001
190,62	218,224
190,83	389,505
191,05	-167,612
191,27	6735,501
191,49	518,944
191,70	553,939
191,92	454,401
192,14	419,127
192,35	-1592,008
192,57	-858,212
192,79	-1676,172
193,01	509,675
193,22	68,825
193,44	-383,422
193,66	304,257
193,87	511,624
194,09	114,299
194,31	144,980
194,53	-378,949
194,74	382,888
194,96	4,544
195,18	644,898
195,39	-1199,371
195,61	-333,694
195,83	2474,132
196,04	335,230
196,26	154,404
196,48	2094,906
196,70	409,059
196,91	92,714
197,13	190,978
197,35	174,890
197,56	-382,917
197,78	3894,880
198,00	371,590
198,21	429,634
198,43	880,186
198,65	356,515
198,86	167,066
199,08	259,367
199,30	274,256
199,51	1058,152
199,73	-3115,604
199,95	203,187
200,16	606,001
200,38	123,185
200,60	2484,484
200,81	-430,554
201,03	5418,660
201,25	633,742
201,46	-846,402
201,68	497,398
201,90	563,182
202,11	328,447
202,33	208,789
202,55	99,029
202,76	602,463
202,98	580,861
203,20	249,097
203,41	-1284,509
203,63	516,517
203,85	143,295
204,06	-595,316
204,28	187,270
204,50	-363,436
204,71	421,207
204,93	140,185
205,15	113,809
205,36	-118,951
205,58	-1078,207
205,80	-1914,297
206,01	-2462,818
206,23	215,318
206,45	378,792
206,66	244,408
206,88	-345,760
207,10	1669,193
207,31	-43023,179
207,53	301,539
207,75	-114,494
207,96	344,779
208,18	292,066
208,39	246,819
208,61	479,834
208,83	7225,511
209,04	329,969
209,26	185,862
209,48	28,755
209,69	-103,925
209,91	732,535
210,13	13,142
210,34	141,378
210,56	281,312
210,77	697,413
210,99	311,080
211,21	-311,944
211,42	156,615
211,64	785,969
211,86	190,762
212,07	160,875
212,29	644,064
212,50	1319,304
212,72	233,673
212,94	-42,256
213,15	11,497
213,37	769,487
213,58	161,245
213,80	366,049
214,02	2688,214
214,23	313,426
214,45	246,468
214,67	70,330
214,88	-233,259
215,10	1062,877
215,31	250,269
215,53	78,233
215,75	261,179
215,96	462,243
216,18	204,858
216,39	193,197
216,61	399,259
216,83	1193,729
217,04	369,137
217,26	-25,284
217,47	461,621
217,69	244,318
217,91	109,300
218,12	1360,777
218,34	89,817
218,55	140,476
218,77	33,932
218,99	156,087
219,20	205,114
219,42	396,371
219,63	69,143
219,85	224,382
220,06	-387,355
220,28	120,596
220,50	71,830
220,71	76,155
220,93	361,051
221,14	362,061
221,36	84,238
221,58	111,961
221,79	59,533
222,01	179,212
222,22	250,401
222,44	13,089
222,65	147,935
222,87	24,897
223,09	86,706
223,30	71,736
223,52	211,440
223,73	49,901
223,95	8,625
224,16	-19,210
224,38	25,470
224,60	69,272
224,81	111,809
225,03	136,053
225,24	100,337
225,46	5,647
225,67	25,477
225,89	56,544
226,10	127,006
226,32	148,041
226,54	12,695
226,75	6,316
226,97	111,038
227,18	93,835
227,40	88,710
227,61	28,524
227,83	34,217
228,04	111,046
228,26	79,485
228,47	23,183
228,69	91,793
228,91	41,965
229,12	128,145
229,34	14,885
229,55	50,574
229,77	38,779
229,98	32,469
230,20	49,367
230,41	-10,467
230,63	62,816
230,84	33,307
231,06	60,492
231,27	-8,533
231,49	31,052
231,71	34,851
231,92	10,975
232,14	-4,535
232,35	31,185
232,57	7,077
232,78	21,058
233,00	26,569
233,21	26,876
233,43	19,020
233,64	5,558
233,86	22,837
234,07	38,646
234,29	19,701
234,50	7,305
234,72	24,266
234,93	24,693
235,15	9,183
235,36	19,328
235,58	44,557
235,79	22,762
236,01	6,847
236,22	27,771
236,44	31,835
236,65	20,529
236,87	23,803
237,08	18,657
237,30	-2,236
237,51	27,712
237,73	22,179
237,94	11,683
238,16	18,086
238,37	10,008
238,59	1,725
238,80	12,385
239,02	9,156
239,23	23,811
239,45	13,327
239,66	26,199
239,88	25,293
240,09	22,925
240,31	11,225
240,52	11,914
240,74	14,638
240,95	19,120
241,17	16,786
241,38	9,327
241,60	5,633
241,81	20,834
242,03	5,838
242,24	16,981
242,46	14,206
242,67	2,291
242,89	19,359
243,10	11,442
243,32	21,019
243,53	18,621
243,75	9,505
243,96	12,249
244,18	9,666
244,39	19,419
244,60	4,683
244,82	8,850
245,03	14,693
245,25	13,657
245,46	26,601
245,68	4,674
245,89	27,643
246,11	23,482
246,32	8,881
246,54	12,660
246,75	6,846
246,97	17,389
247,18	20,091
247,39	8,850
247,61	13,669
247,82	9,466
248,04	6,167
248,25	8,124
248,47	8,037
248,68	11,401
248,90	7,566
249,11	8,632
249,33	17,056
249,54	9,943
249,75	11,245
249,97	5,525
250,18	16,879
250,40	15,358
250,61	10,477
250,83	4,498
251,04	6,705
251,25	16,331
251,47	13,372
251,68	7,144
251,90	9,386
252,11	9,909
252,33	11,583
252,54	9,808
252,76	3,583
252,97	3,410
253,18	8,666
253,40	11,467
253,61	5,894
253,83	10,180
254,04	13,505
254,25	4,606
254,47	4,666
254,68	12,027
254,90	4,911
255,11	6,670
255,33	11,731
255,54	8,095
255,75	4,880
255,97	7,341
256,18	5,472
256,40	8,385
256,61	10,136
256,82	8,180
257,04	10,936
257,25	7,567
257,47	10,112
257,68	15,401
257,89	9,169
258,11	6,044
258,32	11,615
258,54	4,899
258,75	14,921
258,96	8,218
259,18	10,057
259,39	6,960
259,61	12,511
259,82	4,566
260,03	3,585
260,25	9,856
260,46	8,286
260,68	6,249
260,89	7,022
261,10	10,139
261,32	8,838
261,53	1,675
261,75	10,043
261,96	8,431
262,17	20,304
262,39	11,466
262,60	3,312
262,81	6,292
263,03	15,272
263,24	10,780
263,46	5,574
263,67	11,988
263,88	8,742
264,10	6,171
264,31	7,399
264,52	5,960
264,74	9,088
264,95	6,882
265,17	9,369
265,38	8,928
265,59	11,607
265,81	11,434
266,02	4,099
266,23	2,377
266,45	12,460
266,66	10,551
266,87	9,430
267,09	6,251
267,30	12,083
267,52	14,150
267,73	9,065
267,94	8,816
268,16	8,374
268,37	3,499
268,58	10,930
268,80	3,363
269,01	7,991
269,22	11,352
269,44	10,795
269,65	11,047
269,86	7,125
270,08	9,146
270,29	5,875
270,50	5,557
270,72	10,661
270,93	3,709
271,14	6,976
271,36	5,576
271,57	9,380
271,78	7,696
272,00	5,758
272,21	10,290
272,42	7,551
272,64	13,828
272,85	5,597
273,06	7,272
273,28	8,394
273,49	5,253
273,70	9,513
273,92	9,262
274,13	8,404
274,34	3,013
274,56	12,598
274,77	8,692
274,98	13,146
275,20	11,109
275,41	10,578
275,62	5,396
275,84	8,167
276,05	14,919
276,26	6,445
276,47	8,075
276,69	13,590
276,90	14,655
277,11	8,016
277,33	5,014
277,54	10,676
277,75	9,228
277,97	4,524
278,18	7,128
278,39	13,314
278,61	3,817
278,82	11,797
279,03	8,553
279,24	6,698
279,46	10,223
279,67	11,387
279,88	8,280
280,10	12,052
280,31	6,803
280,52	6,493
280,73	4,207
280,95	9,953
281,16	6,497
281,37	8,717
281,59	8,605
281,80	11,497
282,01	4,253
282,22	2,747
282,44	9,140
282,65	14,290
282,86	9,287
283,08	5,808
283,29	8,706
283,50	3,888
283,71	7,892
283,93	6,883
284,14	3,991
284,35	8,434
284,56	7,230
284,78	3,348
284,99	9,665
285,20	12,340
285,42	6,489
285,63	7,574
285,84	4,192
286,05	6,805
286,27	6,837
286,48	10,802
286,69	8,725
286,90	5,928
287,12	7,786
287,33	6,427
287,54	6,442
287,75	12,146
287,97	4,655
288,18	5,565
288,39	7,728
288,60	7,357
288,82	6,589
289,03	5,168
289,24	8,367
289,45	9,706
289,67	8,070
289,88	5,414
290,09	11,139
290,30	6,543
290,52	4,611
290,73	5,173
290,94	6,353
291,15	7,902
291,37	8,357
291,58	7,578
291,79	8,622
292,00	5,708
292,21	7,574
292,43	8,137
292,64	4,492
292,85	6,384
293,06	10,682
293,28	5,929
293,49	5,594
293,70	10,367
293,91	3,521
294,12	7,055
294,34	5,585
294,55	9,021
294,76	8,182
294,97	9,781
295,19	6,483
295,40	7,863
295,61	5,962
295,82	8,234
296,03	7,623
296,25	7,538
296,46	4,473
296,67	5,295
296,88	9,383
297,09	6,613
297,31	4,215
297,52	7,935
297,73	6,843
297,94	5,136
298,15	8,924
298,37	6,472
298,58	5,323
298,79	7,943
299,00	2,712
299,21	6,517
299,43	3,674
299,64	10,033
299,85	6,117
300,06	3,423
300,27	3,958
300,49	9,498
300,70	9,963
300,91	5,662
301,12	6,668
301,33	9,338
301,54	4,916
301,76	7,415
301,97	6,550
302,18	7,464
302,39	10,782
302,60	6,337
302,82	5,754
303,03	11,121
303,24	6,519
303,45	7,277
303,66	8,235
303,87	3,493
304,09	7,011
304,30	5,211
304,51	6,466
304,72	5,441
304,93	8,464
305,14	5,815
305,36	5,768
305,57	4,352
305,78	9,557
305,99	6,568
306,20	7,724
306,41	4,485
306,62	4,334
306,84	6,412
307,05	7,970
307,26	5,209
307,47	11,178
307,68	5,683
307,89	6,207
308,11	6,524
308,32	7,710
308,53	5,893
308,74	4,652
308,95	7,001
309,16	12,269
309,37	7,280
309,59	3,809
309,80	6,623
310,01	6,807
310,22	9,806
310,43	7,713
310,64	7,489
310,85	7,818
311,06	4,907
311,28	7,315
311,49	8,536
311,70	9,670
311,91	6,339
312,12	3,969
312,33	5,400
312,54	7,052
312,75	9,896
312,97	4,797
313,18	9,537
313,39	4,645
313,60	6,946
313,81	6,872
314,02	7,816
314,23	9,603
314,44	6,149
314,65	3,489
314,87	6,087
315,08	6,497
315,29	4,848
315,50	7,741
315,71	12,072
315,92	10,247
316,13	3,631
316,34	7,075
316,55	8,052
316,77	3,721
316,98	5,462
317,19	5,078
317,40	9,023
317,61	10,863
317,82	8,350
318,03	4,047
318,24	7,070
318,45	10,627
318,66	6,607
318,87	3,306
319,09	7,117
319,30	7,641
319,51	9,590
319,72	7,921
319,93	6,713
320,14	7,907
320,35	8,342
320,56	4,723
320,77	7,814
320,98	10,749
321,19	8,922
321,40	6,217
321,62	8,251
321,83	3,168
322,04	8,105
322,25	8,445
322,46	11,827
322,67	8,469
322,88	10,123
323,09	6,813
323,30	8,944
323,51	13,328
323,72	6,633
323,93	4,728
324,14	7,163
324,35	2,203
324,56	5,547
324,77	4,244
324,99	5,622
325,20	6,510
325,41	6,750
325,62	6,996
325,83	2,092
326,04	4,871
326,25	6,725
326,46	4,533
326,67	5,601
326,88	6,490
327,09	5,868
327,30	6,534
327,51	6,950
327,72	5,740
327,93	5,847
328,14	5,491
328,35	8,483
328,56	6,648
328,77	8,731
328,98	8,171
329,19	5,761
329,40	7,881
329,61	3,816
329,82	4,248
330,04	7,590
330,25	7,538
330,46	6,271
330,67	5,487
330,88	6,968
331,09	4,017
331,30	6,127
331,51	7,755
331,72	7,051
331,93	7,842
332,14	5,986
332,35	8,211
332,56	6,068
332,77	9,575
332,98	5,286
333,19	6,203
333,40	6,652
333,61	5,006
333,82	7,887
334,03	7,189
334,24	13,130
334,45	7,432
334,66	9,297
334,87	5,505
335,08	4,685
335,29	4,769
335,50	4,676
335,71	4,467
335,92	8,795
336,13	7,603
336,34	3,673
336,55	7,171
336,76	9,203
336,97	6,193
337,18	7,845
337,39	7,095
337,60	7,863
337,81	7,053
338,02	6,908
338,23	5,345
338,44	5,003
338,65	2,758
338,86	6,727
339,07	6,218
339,28	6,291
339,49	5,818
339,70	4,058
339,91	6,724
340,11	10,190
340,32	5,780
340,53	5,370
340,74	3,138
340,95	5,241
341,16	7,097
341,37	7,598
341,58	7,767
341,79	6,019
342,00	3,982
342,21	1,204
342,42	5,898
342,63	9,292
342,84	7,993
343,05	6,276
343,26	10,438
343,47	9,383
343,68	4,499
343,89	4,051
344,10	6,034
344,31	5,658
344,52	7,583
344,73	5,561
344,94	6,266
345,14	7,491
345,35	5,807
345,56	2,668
345,77	2,749
345,98	4,138
346,19	8,429
346,40	9,747
346,61	4,326
346,82	7,913
347,03	9,168
347,24	4,134
347,45	6,355
347,66	9,054
347,87	7,137
348,08	9,754
348,28	5,224
348,49	6,296
348,70	6,901
348,91	6,431
349,12	6,132
349,33	7,595
349,54	6,949
349,75	9,355
349,96	6,020
350,17	8,839
350,38	4,541
350,59	5,027
350,80	6,632
351,00	3,900
351,21	12,452
351,42	5,237
351,63	3,845
351,84	6,801
352,05	9,397
352,26	5,316
352,47	7,616
352,68	10,246
352,89	4,474
353,09	4,597
353,30	3,905
353,51	3,823
353,72	10,393
353,93	9,433
354,14	5,864
354,35	7,154
354,56	8,961
354,77	5,451
354,98	1,719
355,18	8,670
355,39	9,591
355,60	4,717
355,81	8,278
356,02	7,246
356,23	4,721
356,44	8,464
356,65	5,417
356,85	9,980
357,06	9,975
357,27	8,572
357,48	3,692
357,69	9,859
357,90	6,589
358,11	0,549
358,32	3,776
358,52	8,473
358,73	4,233
358,94	7,770
359,15	7,784
359,36	9,036
359,57	4,894
359,78	10,871
359,98	7,028
360,19	4,477
360,40	4,729
360,61	8,781
360,82	6,877
361,03	14,308
361,24	17,666
361,44	4,977
361,65	6,799
361,86	4,875
362,07	6,690
362,28	10,678
362,49	7,703
362,70	8,792
362,90	6,542
363,11	4,334
363,32	3,837
363,53	6,690
363,74	9,159
363,95	9,948
364,15	5,456
364,36	10,408
364,57	4,465
364,78	5,806
364,99	4,822
365,20	8,031
365,40	10,310
365,61	5,970
365,82	7,602
366,03	11,433
366,24	3,339
366,45	3,924
366,65	1,986
366,86	7,156
367,07	5,675
367,28	3,164
367,49	2,958
367,69	9,165
367,90	6,128
368,11	8,876
368,32	6,069
368,53	10,301
368,73	5,572
368,94	7,593
369,15	7,193
369,36	9,881
369,57	8,667
369,78	7,109
369,98	7,470
370,19	9,619
370,40	4,119
370,61	7,226
370,82	9,979
371,02	11,150
371,23	7,851
371,44	6,654
371,65	4,231
371,85	10,186
372,06	5,976
372,27	8,063
372,48	5,721
372,69	11,339
372,89	7,888
373,10	5,456
373,31	6,342
373,52	8,551
373,73	9,557
373,93	8,748
374,14	6,982
374,35	7,894
374,56	6,821
374,76	6,731
374,97	6,826
375,18	10,295
375,39	9,714
375,60	9,435
375,80	5,210
376,01	5,939
376,22	6,400
376,43	8,269
376,63	9,230
376,84	9,293
377,05	7,472
377,26	7,365
377,46	6,828
377,67	7,156
377,88	4,011
378,09	6,470
378,29	9,554
378,50	5,685
378,71	7,244
378,92	4,548
379,12	4,777
379,33	6,561
379,54	8,240
379,75	10,513
379,95	8,466
380,16	9,256
380,37	7,953
380,58	4,664
380,78	7,074
380,99	3,769
381,20	6,604
381,41	9,337
381,61	7,399
381,82	9,431
382,03	10,157
382,24	10,139
382,44	5,459
382,65	7,273
382,86	11,181
383,06	10,320
383,27	6,591
383,48	8,163
383,69	7,127
383,89	5,526
384,10	4,966
384,31	6,487
384,51	10,292
384,72	11,758
384,93	8,101
385,14	5,038
385,34	6,257
385,55	5,210
385,76	4,734
385,96	13,167
386,17	8,694
386,38	6,724
386,59	14,239
386,79	10,081
387,00	13,416
387,21	11,954
387,41	6,689
387,62	8,120
387,83	11,378
388,03	9,114
388,24	8,499
388,45	9,477
388,66	8,553
388,86	8,049
389,07	8,925
389,28	16,445
389,48	9,076
389,69	10,441
389,90	4,955
390,10	7,289
390,31	13,530
390,52	8,283
390,72	9,029
390,93	8,777
391,14	9,499
391,34	9,778
391,55	10,617
391,76	13,526
391,96	13,735
392,17	7,301
392,38	10,398
392,58	9,280
392,79	7,950
393,00	6,635
393,20	9,318
393,41	9,169
393,62	13,305
393,82	8,327
394,03	12,123
394,24	8,098
394,44	15,833
394,65	12,431
394,86	9,837
395,06	11,978
395,27	12,033
395,48	11,350
395,68	8,591
395,89	11,236
396,10	14,330
396,30	6,004
396,51	8,406
396,72	13,667
396,92	7,715
397,13	14,129
397,34	7,946
397,54	11,243
397,75	11,111
397,95	9,070
398,16	10,181
398,37	11,499
398,57	6,002
398,78	6,136
398,99	13,035
399,19	13,945
399,40	17,016
399,60	10,628
399,81	13,331
400,02	17,402
400,22	12,462
400,43	14,706
400,64	9,042
400,84	6,522
401,05	13,634
401,25	13,727
401,46	10,279
401,67	15,138
401,87	11,708
402,08	9,868
402,29	12,750
402,49	16,596
402,70	14,955
402,90	10,202
403,11	13,392
403,32	7,844
403,52	11,751
403,73	10,984
403,93	16,272
404,14	20,582
404,35	14,032
404,55	10,596
404,76	11,985
404,96	13,847
405,17	19,164
405,38	18,782
405,58	13,174
405,79	19,777
405,99	19,680
406,20	15,374
406,40	13,336
406,61	15,918
406,82	14,652
407,02	13,314
407,23	11,384
407,43	13,020
407,64	12,906
407,85	15,169
408,05	11,531
408,26	22,048
408,46	20,037
408,67	17,970
408,87	15,406
409,08	12,266
409,29	20,781
409,49	20,277
409,70	15,157
409,90	16,381
410,11	16,983
410,31	16,893
410,52	16,992
410,72	15,775
410,93	17,154
411,14	16,739
411,34	13,437
411,55	16,827
411,75	17,128
411,96	18,593
412,16	17,920
412,37	16,181
412,57	19,050
412,78	20,363
412,99	15,481
413,19	19,802
413,40	16,918
413,60	16,514
413,81	19,814
414,01	15,793
414,22	16,996
414,42	15,815
414,63	16,475
414,83	17,690
415,04	23,747
415,24	20,002
415,45	18,984
415,65	20,428
415,86	21,615
416,07	21,147
416,27	20,481
416,48	21,113
416,68	25,575
416,89	17,196
417,09	20,768
417,30	24,648
417,50	15,302
417,71	23,553
417,91	23,455
418,12	20,002
418,32	19,691
418,53	17,263
418,73	22,948
418,94	17,899
419,14	24,029
419,35	16,772
419,55	20,861
419,76	24,108
419,96	23,544
420,17	19,041
420,37	18,253
420,58	24,948
420,78	24,222
420,99	21,050
421,19	24,332
421,40	28,514
421,60	24,121
421,81	20,842
422,01	21,355
422,22	23,564
422,42	24,858
422,63	25,919
422,83	24,978
423,04	29,445
423,24	31,734
423,45	23,031
423,65	22,646
423,86	29,705
424,06	23,796
424,27	23,711
424,47	24,489
424,67	19,146
424,88	24,424
425,08	23,870
425,29	26,180
425,49	18,633
425,70	21,839
425,90	25,073
426,11	24,560
426,31	24,112
426,52	26,689
426,72	23,594
426,93	22,703
427,13	27,032
427,33	20,916
427,54	25,215
427,74	23,987
427,95	28,084
428,15	23,596
428,36	22,933
428,56	21,767
428,77	24,907
428,97	26,383
429,18	24,911
429,38	25,735
429,58	24,767
429,79	27,632
429,99	23,882
430,20	24,767
430,40	29,778
430,61	24,385
430,81	25,224
431,01	29,384
431,22	27,969
431,42	26,460
431,63	19,920
431,83	26,035
432,04	27,701
432,24	25,119
432,44	25,702
432,65	26,718
432,85	24,488
433,06	27,375
433,26	26,399
433,47	25,292
433,67	22,639
433,87	25,992
434,08	24,997
434,28	22,673
434,49	24,991
434,69	34,206
434,89	30,121
435,10	22,643
435,30	25,823
435,51	24,384
435,71	25,791
435,91	22,129
436,12	21,237
436,32	24,516
436,53	22,512
436,73	25,739
436,93	27,958
437,14	23,197
437,34	27,669
437,55	25,911
437,75	28,846
437,95	28,650
438,16	25,731
438,36	28,587
438,57	28,523
438,77	23,134
438,97	27,784
439,18	26,218
439,38	29,457
439,58	24,794
439,79	28,716
439,99	19,997
440,20	31,010
440,40	32,086
440,60	26,749
440,81	25,661
441,01	27,724
441,21	29,493
441,42	26,954
441,62	29,579
441,83	28,170
442,03	23,015
442,23	28,806
442,44	27,651
442,64	33,250
442,84	24,815
443,05	27,571
443,25	25,754
443,45	28,008
443,66	25,289
443,86	25,729
444,06	29,429
444,27	25,888
444,47	30,810
444,67	28,536
444,88	30,871
445,08	26,559
445,28	23,479
445,49	28,526
445,69	25,573
445,90	31,756
446,10	31,346
446,30	26,965
446,51	27,668
446,71	29,524
446,91	31,329
447,12	33,305
447,32	26,480
447,52	27,214
447,72	31,452
447,93	27,634
448,13	23,515
448,33	32,196
448,54	31,594
448,74	27,087
448,94	25,029
449,15	32,540
449,35	22,419
449,55	30,801
449,76	28,470
449,96	27,587
450,16	29,760
450,37	23,743
450,57	29,065
450,77	27,611
450,98	27,062
451,18	30,726
451,38	29,914
451,58	33,320
451,79	26,283
451,99	28,121
