Fichero De Datos De SpectraSuite
++++++++++++++++++++++++++++++++++++
Fecha: Wed Apr 22 08:49:08 CEST 2009
Usuario: evoflor
Presente Oscuro Del Espectro: Sí
La Referencia de Presente Del Espectro De: Sí
Muestreados de los componentes de Número de espectros: 1
Espectrómetros: USB4F02353
Tiempo de integración (usec): 500000 (USB4F02353)
Promedio de Espectros Hechos un: 5 (USB4F02353)
El Alisar Del Furgón: 0 (USB4F02353)
Párrafo de de Corregir del la del del de Eléctrica del obscuridad: Sí (USB4F02353)
Estrobo/Lámpara Permitido: No (USB4F02353)
Correct for Detector Non-linearity: No (USB4F02353)
Párrafo de de Corregir del la del del de Externa del luz: No (USB4F02353)
Procesado del espectro de Número de pixeles en: 3648
>>>>> Comienza Data<<<<< Espectral Procesado Del EL
177,79	846,611
178,00	846,611
178,22	846,611
178,44	-7873,164
178,66	591,371
178,88	100,392
179,09	3719,794
179,31	289,281
179,53	-6166,475
179,75	452,697
179,96	-236,183
180,18	365,945
180,40	-292,861
180,62	-152,774
180,83	214,492
181,05	-761,540
181,27	-820,482
181,49	29,082
181,70	-299,727
181,92	273,799
182,14	248,118
182,36	-425,939
182,58	180,311
182,79	-1029,890
183,01	-12483,366
183,23	443,926
183,45	-145,948
183,66	53,598
183,88	785,224
184,10	650,810
184,32	937,512
184,53	-270,590
184,75	518,200
184,97	-186,307
185,18	1673,464
185,40	286,202
185,62	-676,998
185,84	706,275
186,05	2895,401
186,27	-6373,134
186,49	-652,445
186,71	227,808
186,92	655,303
187,14	1513,622
187,36	249,183
187,58	657,952
187,79	-448,561
188,01	-1294,130
188,23	152,670
188,45	19,582
188,66	-54,130
188,88	230,105
189,10	-469,145
189,31	-63,438
189,53	-139,112
189,75	1052,665
189,97	177,037
190,18	164,057
190,40	1150,171
190,62	238,308
190,83	456,209
191,05	-181,238
191,27	6908,612
191,49	581,558
191,70	460,183
191,92	456,808
192,14	542,991
192,35	-1467,119
192,57	-942,526
192,79	-1437,041
193,01	553,171
193,22	-174,104
193,44	-505,650
193,66	361,065
193,87	668,400
194,09	210,181
194,31	306,854
194,53	-421,982
194,74	501,292
194,96	271,032
195,18	863,625
195,39	-1192,962
195,61	-384,133
195,83	2737,236
196,04	363,279
196,26	72,898
196,48	1772,589
196,70	405,819
196,91	211,547
197,13	-46,158
197,35	204,818
197,56	-645,088
197,78	5688,906
198,00	428,493
198,21	208,444
198,43	918,696
198,65	249,983
198,86	86,574
199,08	596,425
199,30	235,162
199,51	1074,560
199,73	-2627,022
199,95	227,793
200,16	554,074
200,38	178,504
200,60	1918,542
200,81	-384,231
201,03	8904,306
201,25	686,220
201,46	-763,092
201,68	563,181
201,90	493,667
202,11	97,671
202,33	89,216
202,55	165,720
202,76	638,431
202,98	578,367
203,20	230,292
203,41	-1405,019
203,63	415,853
203,85	167,032
204,06	-572,128
204,28	192,989
204,50	-114,288
204,71	314,978
204,93	106,566
205,15	212,583
205,36	-184,336
205,58	-1189,807
205,80	-1599,513
206,01	-2972,603
206,23	327,336
206,45	521,013
206,66	251,667
206,88	-422,415
207,10	2034,566
207,31	-38072,848
207,53	399,093
207,75	155,690
207,96	371,103
208,18	285,612
208,39	270,453
208,61	700,764
208,83	9017,223
209,04	391,164
209,26	389,553
209,48	68,269
209,69	-117,147
209,91	806,333
210,13	26,633
210,34	200,133
210,56	340,732
210,77	2026,549
210,99	340,256
211,21	-215,503
211,42	166,392
211,64	662,328
211,86	385,959
212,07	206,180
212,29	688,982
212,50	1131,884
212,72	227,059
212,94	237,791
213,15	146,920
213,37	672,109
213,58	153,113
213,80	317,957
214,02	2478,301
214,23	292,844
214,45	223,425
214,67	51,317
214,88	-91,885
215,10	1419,533
215,31	-1348,762
215,53	51,445
215,75	314,319
215,96	484,315
216,18	81,094
216,39	220,249
216,61	381,402
216,83	1092,589
217,04	494,913
217,26	4,254
217,47	502,519
217,69	287,654
217,91	89,230
218,12	1029,563
218,34	95,662
218,55	234,066
218,77	5,819
218,99	158,762
219,20	190,861
219,42	480,819
219,63	35,896
219,85	346,986
220,06	-275,597
220,28	114,957
220,50	43,487
220,71	124,400
220,93	388,498
221,14	441,236
221,36	14,603
221,58	181,876
221,79	73,605
222,01	166,450
222,22	211,756
222,44	-0,402
222,65	123,734
222,87	17,800
223,09	109,005
223,30	68,825
223,52	225,066
223,73	49,584
223,95	35,747
224,16	82,713
224,38	140,723
224,60	57,407
224,81	65,315
225,03	97,963
225,24	89,841
225,46	-44,901
225,67	23,856
225,89	30,276
226,10	104,867
226,32	73,409
226,54	-24,933
226,75	0,165
226,97	103,021
227,18	84,116
227,40	72,800
227,61	53,957
227,83	40,840
228,04	58,496
228,26	64,570
228,47	10,809
228,69	82,899
228,91	61,325
229,12	114,574
229,34	16,431
229,55	62,479
229,77	38,260
229,98	20,765
230,20	33,219
230,41	-1,304
230,63	51,540
230,84	39,369
231,06	46,189
231,27	0,484
231,49	37,575
231,71	20,032
231,92	19,250
232,14	-5,496
232,35	37,493
232,57	-12,821
232,78	20,853
233,00	16,108
233,21	18,715
233,43	13,607
233,64	-12,444
233,86	30,656
234,07	28,724
234,29	-1,379
234,50	11,143
234,72	24,407
234,93	11,697
235,15	3,935
235,36	11,698
235,58	49,934
235,79	25,441
236,01	4,445
236,22	18,554
236,44	29,187
236,65	18,296
236,87	12,632
237,08	7,448
237,30	-1,720
237,51	21,071
237,73	15,330
237,94	9,674
238,16	15,906
238,37	4,197
238,59	1,038
238,80	3,869
239,02	5,035
239,23	26,050
239,45	4,555
239,66	19,387
239,88	23,639
240,09	17,236
240,31	6,474
240,52	6,841
240,74	11,212
240,95	12,477
241,17	8,309
241,38	6,330
241,60	2,343
241,81	16,110
242,03	-0,762
242,24	10,888
242,46	6,149
242,67	-4,811
242,89	13,939
243,10	11,418
243,32	12,955
243,53	12,603
243,75	7,845
243,96	9,667
244,18	8,484
244,39	14,158
244,60	-0,161
244,82	3,272
245,03	14,459
245,25	8,162
245,46	25,097
245,68	0,822
245,89	30,231
246,11	19,242
246,32	8,214
246,54	9,384
246,75	6,982
246,97	13,855
247,18	18,132
247,39	6,300
247,61	10,461
247,82	14,745
248,04	2,752
248,25	0,479
248,47	3,559
248,68	10,633
248,90	7,053
249,11	8,372
249,33	15,311
249,54	6,474
249,75	7,876
249,97	1,457
250,18	18,191
250,40	14,710
250,61	2,549
250,83	-0,954
251,04	7,085
251,25	14,122
251,47	6,987
251,68	3,755
251,90	5,967
252,11	7,634
252,33	6,628
252,54	3,635
252,76	-1,193
252,97	0,929
253,18	4,533
253,40	6,501
253,61	3,124
253,83	5,418
254,04	6,191
254,25	-1,052
254,47	-1,186
254,68	6,174
254,90	3,930
255,11	2,733
255,33	5,994
255,54	2,781
255,75	2,717
255,97	6,679
256,18	0,339
256,40	5,820
256,61	7,289
256,82	2,137
257,04	9,038
257,25	2,331
257,47	2,749
257,68	6,822
257,89	3,697
258,11	2,686
258,32	8,127
258,54	2,124
258,75	13,069
258,96	7,586
259,18	5,255
259,39	3,505
259,61	9,897
259,82	0,703
260,03	0,205
260,25	4,383
260,46	6,681
260,68	1,587
260,89	2,842
261,10	7,093
261,32	2,763
261,53	-3,594
261,75	7,805
261,96	3,320
262,17	17,242
262,39	7,134
262,60	0,563
262,81	3,607
263,03	9,392
263,24	7,759
263,46	0,090
263,67	5,073
263,88	7,469
264,10	3,519
264,31	4,084
264,52	4,168
264,74	4,733
264,95	5,073
265,17	7,383
265,38	4,625
265,59	9,548
265,81	4,184
266,02	-1,048
266,23	-0,711
266,45	9,337
266,66	7,481
266,87	4,575
267,09	3,070
267,30	9,903
267,52	9,763
267,73	5,742
267,94	0,862
268,16	5,350
268,37	0,265
268,58	7,131
268,80	-3,599
269,01	4,961
269,22	6,590
269,44	6,820
269,65	5,433
269,86	2,526
270,08	7,252
270,29	2,781
270,50	2,367
270,72	6,408
270,93	-0,587
271,14	4,375
271,36	1,740
271,57	5,069
271,78	5,545
272,00	4,648
272,21	7,649
272,42	4,626
272,64	8,117
272,85	-0,372
273,06	2,764
273,28	5,210
273,49	0,393
273,70	5,812
273,92	6,450
274,13	3,988
274,34	-2,980
274,56	6,738
274,77	3,971
274,98	9,278
275,20	4,831
275,41	5,620
275,62	-0,142
275,84	5,763
276,05	13,160
276,26	0,791
276,47	2,268
276,69	8,849
276,90	9,869
277,11	3,766
277,33	1,755
277,54	9,240
277,75	3,470
277,97	2,201
278,18	2,078
278,39	7,120
278,61	0,490
278,82	7,739
279,03	5,338
279,24	1,607
279,46	6,362
279,67	9,036
279,88	3,604
280,10	6,216
280,31	0,380
280,52	1,813
280,73	1,655
280,95	6,685
281,16	5,115
281,37	3,090
281,59	3,491
281,80	8,430
282,01	1,487
282,22	0,281
282,44	3,892
282,65	11,055
282,86	3,384
283,08	-1,503
283,29	1,771
283,50	0,356
283,71	4,866
283,93	5,156
284,14	-0,275
284,35	2,516
284,56	3,208
284,78	-0,645
284,99	6,555
285,20	8,397
285,42	2,469
285,63	3,291
285,84	1,937
286,05	2,378
286,27	2,411
286,48	6,672
286,69	4,280
286,90	2,942
287,12	2,050
287,33	1,559
287,54	2,243
287,75	10,024
287,97	2,396
288,18	3,527
288,39	3,745
288,60	3,881
288,82	1,910
289,03	0,673
289,24	6,030
289,45	7,254
289,67	2,087
289,88	4,291
290,09	7,092
290,30	1,667
290,52	2,984
290,73	-1,395
290,94	1,964
291,15	3,169
291,37	4,077
291,58	2,873
291,79	3,184
292,00	3,036
292,21	2,683
292,43	5,225
292,64	-0,891
292,85	3,392
293,06	7,236
293,28	1,179
293,49	0,758
293,70	7,338
293,91	-0,137
294,12	2,497
294,34	2,025
294,55	6,308
294,76	5,802
294,97	6,783
295,19	3,388
295,40	4,462
295,61	4,788
295,82	5,537
296,03	2,716
296,25	3,979
296,46	0,544
296,67	2,274
296,88	4,472
297,09	2,321
297,31	1,008
297,52	3,803
297,73	0,987
297,94	0,256
298,15	3,187
298,37	1,629
298,58	1,846
298,79	3,188
299,00	-0,793
299,21	3,405
299,43	-0,115
299,64	7,127
299,85	0,700
300,06	0,041
300,27	0,180
300,49	4,790
300,70	6,127
300,91	2,611
301,12	1,607
301,33	6,814
301,54	2,109
301,76	4,353
301,97	3,495
302,18	6,968
302,39	6,788
302,60	3,412
302,82	1,774
303,03	8,820
303,24	1,802
303,45	4,281
303,66	5,257
303,87	-0,468
304,09	5,451
304,30	-0,738
304,51	1,720
304,72	1,115
304,93	3,681
305,14	1,867
305,36	1,574
305,57	0,833
305,78	4,170
305,99	3,066
306,20	3,703
306,41	0,894
306,62	1,717
306,84	2,337
307,05	3,792
307,26	2,957
307,47	7,777
307,68	2,789
307,89	2,456
308,11	4,720
308,32	3,820
308,53	1,960
308,74	1,276
308,95	1,400
309,16	7,571
309,37	4,052
309,59	1,266
309,80	2,454
310,01	3,493
310,22	3,143
310,43	3,889
310,64	4,810
310,85	4,953
311,06	2,199
311,28	3,865
311,49	2,796
311,70	7,273
311,91	2,205
312,12	1,568
312,33	0,173
312,54	3,783
312,75	6,649
312,97	1,533
313,18	7,791
313,39	0,374
313,60	3,011
313,81	2,563
314,02	1,936
314,23	5,556
314,44	1,855
314,65	1,083
314,87	2,483
315,08	3,144
315,29	2,397
315,50	4,514
315,71	8,819
315,92	6,816
316,13	0,443
316,34	2,230
316,55	6,990
316,77	-0,144
316,98	0,261
317,19	2,021
317,40	3,993
317,61	4,889
317,82	4,280
318,03	0,580
318,24	3,116
318,45	6,346
318,66	3,428
318,87	0,995
319,09	2,823
319,30	4,452
319,51	4,604
319,72	3,976
319,93	3,277
320,14	5,100
320,35	6,190
320,56	0,768
320,77	2,756
320,98	6,609
321,19	6,015
321,40	2,793
321,62	1,636
321,83	-1,550
322,04	3,235
322,25	4,552
322,46	8,642
322,67	4,726
322,88	5,134
323,09	3,750
323,30	6,072
323,51	8,150
323,72	3,057
323,93	1,167
324,14	1,342
324,35	-1,873
324,56	0,785
324,77	2,641
324,99	3,384
325,20	1,164
325,41	4,274
325,62	3,547
325,83	-2,622
326,04	2,791
326,25	2,282
326,46	1,052
326,67	2,294
326,88	4,953
327,09	1,592
327,30	3,543
327,51	3,890
327,72	3,751
327,93	3,489
328,14	2,307
328,35	3,643
328,56	1,993
328,77	6,309
328,98	5,910
329,19	3,052
329,40	4,065
329,61	0,113
329,82	0,489
330,04	6,130
330,25	3,446
330,46	3,860
330,67	2,859
330,88	5,396
331,09	1,487
331,30	3,144
331,51	3,365
331,72	4,637
331,93	4,494
332,14	1,223
332,35	3,311
332,56	3,070
332,77	5,485
332,98	2,979
333,19	4,347
333,40	2,715
333,61	3,481
333,82	2,109
334,03	3,184
334,24	9,972
334,45	4,102
334,66	4,063
334,87	3,603
335,08	2,819
335,29	3,543
335,50	3,052
335,71	0,007
335,92	4,377
336,13	4,342
336,34	0,214
336,55	4,527
336,76	5,721
336,97	2,914
337,18	1,635
337,39	4,017
337,60	4,333
337,81	4,617
338,02	4,855
338,23	2,299
338,44	3,861
338,65	-0,406
338,86	2,269
339,07	3,268
339,28	1,454
339,49	3,517
339,70	0,620
339,91	3,929
340,11	6,684
340,32	2,044
340,53	1,854
340,74	-0,267
340,95	1,881
341,16	1,643
341,37	3,940
341,58	3,168
341,79	0,453
342,00	1,912
342,21	-3,182
342,42	2,289
342,63	5,345
342,84	4,731
343,05	2,640
343,26	7,506
343,47	4,200
343,68	-0,454
343,89	2,092
344,10	0,464
344,31	2,742
344,52	5,543
344,73	0,780
344,94	1,845
345,14	4,085
345,35	2,423
345,56	0,586
345,77	0,691
345,98	1,023
346,19	3,403
346,40	4,265
346,61	-0,650
346,82	2,700
347,03	5,441
347,24	-0,729
347,45	3,117
347,66	6,424
347,87	1,396
348,08	6,834
348,28	2,983
348,49	1,731
348,70	4,662
348,91	3,224
349,12	1,082
349,33	-2,838
349,54	6,082
349,75	4,842
349,96	2,421
350,17	6,424
350,38	0,819
350,59	2,261
350,80	2,578
351,00	1,456
351,21	9,246
351,42	1,987
351,63	-0,268
351,84	4,291
352,05	7,793
352,26	1,692
352,47	5,080
352,68	6,362
352,89	2,756
353,09	-0,491
353,30	-0,422
353,51	2,761
353,72	9,528
353,93	7,239
354,14	1,637
354,35	2,472
354,56	5,969
354,77	1,452
354,98	-0,863
355,18	3,704
355,39	9,747
355,60	0,540
355,81	5,946
356,02	0,743
356,23	0,927
356,44	5,310
356,65	0,800
356,85	7,269
357,06	7,444
357,27	3,417
357,48	-0,722
357,69	7,037
357,90	5,268
358,11	-3,274
358,32	2,173
358,52	6,870
358,73	2,180
358,94	0,891
359,15	3,228
359,36	5,845
359,57	3,719
359,78	7,513
359,98	4,616
360,19	1,931
360,40	0,311
360,61	6,207
360,82	1,409
361,03	9,989
361,24	14,399
361,44	1,500
361,65	3,409
361,86	1,097
362,07	4,865
362,28	8,090
362,49	2,812
362,70	5,200
362,90	2,372
363,11	0,387
363,32	1,075
363,53	1,893
363,74	9,041
363,95	5,746
364,15	1,061
364,36	6,104
364,57	3,042
364,78	-0,223
364,99	2,538
365,20	4,675
365,40	7,958
365,61	4,171
365,82	2,023
366,03	6,824
366,24	0,600
366,45	-2,395
366,65	0,325
366,86	3,849
367,07	1,701
367,28	0,742
367,49	0,836
367,69	6,314
367,90	3,117
368,11	4,677
368,32	4,357
368,53	8,208
368,73	1,445
368,94	2,153
369,15	5,355
369,36	6,827
369,57	3,736
369,78	3,445
369,98	4,708
370,19	5,465
370,40	1,626
370,61	2,973
370,82	4,560
371,02	8,587
371,23	2,656
371,44	3,413
371,65	2,453
371,85	7,195
372,06	2,123
372,27	4,599
372,48	0,724
372,69	6,076
372,89	4,485
373,10	4,366
373,31	3,290
373,52	5,552
373,73	7,737
373,93	4,827
374,14	1,744
374,35	2,055
374,56	4,121
374,76	4,682
374,97	4,546
375,18	7,373
375,39	3,247
375,60	4,541
375,80	2,375
376,01	2,248
376,22	6,431
376,43	3,277
376,63	5,293
376,84	5,232
377,05	5,870
377,26	1,157
377,46	4,191
377,67	2,931
377,88	1,130
378,09	2,882
378,29	3,519
378,50	4,295
378,71	6,010
378,92	-0,768
379,12	-0,059
379,33	0,776
379,54	4,118
379,75	6,484
379,95	4,854
380,16	4,670
380,37	7,010
380,58	2,795
380,78	3,976
380,99	0,731
381,20	1,117
381,41	6,197
381,61	3,136
381,82	5,346
382,03	4,360
382,24	6,431
382,44	2,483
382,65	1,845
382,86	9,024
383,06	6,829
383,27	2,665
383,48	3,779
383,69	6,364
383,89	2,322
384,10	0,806
384,31	4,335
384,51	7,974
384,72	7,696
384,93	3,080
385,14	2,541
385,34	3,208
385,55	2,828
385,76	-1,223
385,96	9,363
386,17	3,209
386,38	0,197
386,59	9,598
386,79	6,040
387,00	11,040
387,21	6,771
387,41	5,532
387,62	5,755
387,83	6,505
388,03	2,914
388,24	3,964
388,45	4,124
388,66	6,303
388,86	1,880
389,07	2,945
389,28	13,354
389,48	2,185
389,69	3,807
389,90	1,518
390,10	3,234
390,31	8,198
390,52	4,903
390,72	5,270
390,93	6,406
391,14	4,084
391,34	7,216
391,55	4,211
391,76	7,476
391,96	11,117
392,17	4,381
392,38	3,622
392,58	5,296
392,79	4,947
393,00	2,810
393,20	3,693
393,41	5,952
393,62	10,168
393,82	2,653
394,03	5,514
394,24	2,786
394,44	8,395
394,65	11,125
394,86	4,516
395,06	7,831
395,27	6,356
395,48	3,778
395,68	3,797
395,89	6,168
396,10	10,400
396,30	2,819
396,51	4,023
396,72	7,418
396,92	0,746
397,13	8,478
397,34	2,721
397,54	9,429
397,75	6,704
397,95	4,727
398,16	5,355
398,37	9,662
398,57	0,409
398,78	5,846
398,99	7,799
399,19	10,057
399,40	14,059
399,60	5,149
399,81	10,728
400,02	13,759
400,22	11,349
400,43	12,373
400,64	4,846
400,84	4,113
401,05	8,565
401,25	7,848
401,46	7,255
401,67	11,309
401,87	5,864
402,08	3,150
402,29	8,695
402,49	12,434
402,70	10,217
402,90	7,050
403,11	11,514
403,32	3,809
403,52	3,879
403,73	7,496
403,93	11,552
404,14	15,123
404,35	6,879
404,55	5,728
404,76	6,426
404,96	8,838
405,17	14,446
405,38	15,549
405,58	8,903
405,79	12,945
405,99	17,024
406,20	9,362
406,40	8,661
406,61	11,906
406,82	9,822
407,02	9,532
407,23	4,868
407,43	10,705
407,64	6,183
407,85	11,801
408,05	6,828
408,26	21,039
408,46	17,057
408,67	12,008
408,87	11,511
409,08	9,193
409,29	16,723
409,49	18,347
409,70	11,903
409,90	12,922
410,11	15,132
410,31	14,842
410,52	11,447
410,72	14,944
410,93	14,834
411,14	12,629
411,34	9,766
411,55	9,745
411,75	14,632
411,96	15,265
412,16	14,562
412,37	10,958
412,57	15,878
412,78	19,628
412,99	12,134
413,19	18,969
413,40	13,907
413,60	14,365
413,81	13,840
414,01	12,672
414,22	15,398
414,42	14,982
414,63	12,737
414,83	13,824
415,04	21,396
415,24	18,038
415,45	13,473
415,65	14,462
415,86	19,908
416,07	15,068
416,27	16,421
416,48	18,498
416,68	24,132
416,89	13,810
417,09	16,377
417,30	21,098
417,50	11,961
417,71	19,147
417,91	17,838
418,12	15,151
418,32	19,345
418,53	12,913
418,73	17,314
418,94	15,237
419,14	22,784
419,35	13,379
419,55	19,544
419,76	20,609
419,96	18,754
420,17	20,579
420,37	15,155
420,58	21,340
420,78	19,893
420,99	17,478
421,19	22,362
421,40	24,927
421,60	20,830
421,81	15,198
422,01	17,713
422,22	20,430
422,42	21,730
422,63	20,323
422,83	20,822
423,04	25,144
423,24	27,208
423,45	17,701
423,65	19,802
423,86	23,750
424,06	25,348
424,27	17,868
424,47	17,254
424,67	16,408
424,88	19,280
425,08	16,852
425,29	24,314
425,49	14,578
425,70	17,498
425,90	18,708
426,11	19,091
426,31	18,490
426,52	21,720
426,72	21,267
426,93	17,308
427,13	22,780
427,33	15,985
427,54	22,317
427,74	22,627
427,95	27,700
428,15	20,817
428,36	20,034
428,56	17,306
428,77	20,431
428,97	23,836
429,18	19,813
429,38	20,154
429,58	22,546
429,79	22,338
429,99	16,680
430,20	21,921
430,40	25,656
430,61	18,881
430,81	22,585
431,01	23,367
431,22	22,612
431,42	23,350
431,63	17,583
431,83	22,233
432,04	24,586
432,24	23,507
432,44	21,945
432,65	22,378
432,85	19,979
433,06	21,087
433,26	20,776
433,47	21,037
433,67	18,544
433,87	20,672
434,08	22,423
434,28	17,574
434,49	20,044
434,69	31,638
434,89	24,207
435,10	19,271
435,30	26,432
435,51	19,631
435,71	20,466
435,91	19,438
436,12	20,410
436,32	19,963
436,53	20,860
436,73	23,382
436,93	24,406
437,14	20,841
437,34	21,083
437,55	18,011
437,75	26,984
437,95	26,091
438,16	18,074
438,36	20,098
438,57	23,547
438,77	18,170
438,97	24,851
439,18	24,191
439,38	23,047
439,58	19,197
439,79	20,623
439,99	18,007
440,20	27,399
440,40	26,800
440,60	26,887
440,81	24,036
441,01	23,110
441,21	26,435
441,42	22,659
441,62	25,344
441,83	20,531
442,03	20,044
442,23	26,948
442,44	24,081
442,64	22,091
442,84	21,067
443,05	24,996
443,25	22,300
443,45	24,424
443,66	22,912
443,86	19,709
444,06	25,573
444,27	22,102
444,47	26,547
444,67	23,318
444,88	25,400
445,08	23,088
445,28	20,294
445,49	21,360
445,69	22,972
445,90	24,228
446,10	26,434
446,30	22,423
446,51	21,038
446,71	25,986
446,91	26,743
447,12	31,065
447,32	19,458
447,52	27,411
447,72	26,380
447,93	20,725
448,13	20,927
448,33	27,716
448,54	25,967
448,74	22,997
448,94	20,516
449,15	26,643
449,35	23,694
449,55	28,540
449,76	23,457
449,96	20,950
450,16	21,511
450,37	21,566
450,57	22,772
450,77	22,793
450,98	21,673
451,18	27,384
451,38	26,438
451,58	25,633
451,79	21,317
451,99	22,509
452,19	27,032
452,40	32,215
452,60	18,320
452,80	25,741
453,00	25,999
453,21	19,057
453,41	24,740
