Fichero De Datos De SpectraSuite
++++++++++++++++++++++++++++++++++++
Fecha: Wed Apr 22 08:48:23 CEST 2009
Usuario: evoflor
Presente Oscuro Del Espectro: Sí
La Referencia de Presente Del Espectro De: Sí
Muestreados de los componentes de Número de espectros: 1
Espectrómetros: USB4F02353
Tiempo de integración (usec): 500000 (USB4F02353)
Promedio de Espectros Hechos un: 5 (USB4F02353)
El Alisar Del Furgón: 0 (USB4F02353)
Párrafo de de Corregir del la del del de Eléctrica del obscuridad: Sí (USB4F02353)
Estrobo/Lámpara Permitido: No (USB4F02353)
Correct for Detector Non-linearity: No (USB4F02353)
Párrafo de de Corregir del la del del de Externa del luz: No (USB4F02353)
Procesado del espectro de Número de pixeles en: 3648
>>>>> Comienza Data<<<<< Espectral Procesado Del EL
177,79	859,695
178,00	859,695
178,22	859,695
178,44	-9023,498
178,66	581,611
178,88	181,431
179,09	3772,237
179,31	140,407
179,53	-7409,185
179,75	422,886
179,96	-65,287
180,18	300,052
180,40	-270,882
180,62	-106,809
180,83	139,512
181,05	-1086,193
181,27	-685,332
181,49	-24,202
181,70	-400,356
181,92	250,259
182,14	176,399
182,36	-2468,746
182,58	212,687
182,79	-925,560
183,01	-10656,360
183,23	273,146
183,45	-117,325
183,66	137,969
183,88	948,467
184,10	810,041
184,32	739,074
184,53	-272,168
184,75	471,834
184,97	-273,475
185,18	1148,360
185,40	193,439
185,62	-1227,080
185,84	2872,363
186,05	3627,953
186,27	-3565,327
186,49	-1000,747
186,71	155,932
186,92	329,526
187,14	1531,225
187,36	295,199
187,58	973,711
187,79	-508,673
188,01	-1143,711
188,23	104,398
188,45	177,992
188,66	-70,132
188,88	279,709
189,10	-422,202
189,31	-177,149
189,53	-225,477
189,75	1034,062
189,97	102,590
190,18	1023,417
190,40	1424,888
190,62	213,146
190,83	464,787
191,05	-188,775
191,27	5742,355
191,49	489,372
191,70	1053,175
191,92	414,515
192,14	399,810
192,35	-1934,945
192,57	-1359,689
192,79	-1641,671
193,01	558,132
193,22	-322,690
193,44	-645,029
193,66	371,795
193,87	982,992
194,09	162,508
194,31	326,739
194,53	-231,085
194,74	277,943
194,96	115,265
195,18	945,450
195,39	-1059,287
195,61	-334,175
195,83	2628,591
196,04	479,545
196,26	129,541
196,48	1315,585
196,70	425,186
196,91	126,830
197,13	149,296
197,35	209,699
197,56	-394,242
197,78	4713,266
198,00	-2,370
198,21	389,364
198,43	832,417
198,65	306,133
198,86	126,740
199,08	485,871
199,30	278,577
199,51	1018,483
199,73	-2458,040
199,95	253,551
200,16	676,393
200,38	110,386
200,60	3484,407
200,81	-564,293
201,03	13222,010
201,25	736,314
201,46	-673,033
201,68	560,644
201,90	499,258
202,11	309,164
202,33	159,876
202,55	112,766
202,76	744,712
202,98	569,546
203,20	375,154
203,41	-1335,958
203,63	441,474
203,85	134,118
204,06	-320,997
204,28	175,433
204,50	-214,729
204,71	531,008
204,93	-153,531
205,15	205,698
205,36	-156,205
205,58	-3020,387
205,80	-2917,465
206,01	-5583,953
206,23	289,935
206,45	514,451
206,66	424,537
206,88	-341,869
207,10	1828,623
207,31	-48221,192
207,53	300,138
207,75	-329,733
207,96	412,831
208,18	285,803
208,39	223,285
208,61	935,339
208,83	8574,166
209,04	75,833
209,26	518,346
209,48	43,835
209,69	-45,546
209,91	1072,106
210,13	27,973
210,34	-84,683
210,56	271,890
210,77	1991,423
210,99	311,723
211,21	-528,035
211,42	145,371
211,64	569,692
211,86	352,443
212,07	182,885
212,29	473,376
212,50	1095,856
212,72	204,524
212,94	452,872
213,15	281,780
213,37	734,744
213,58	121,646
213,80	323,638
214,02	1936,683
214,23	375,197
214,45	286,568
214,67	-0,693
214,88	-126,775
215,10	1533,578
215,31	1075,780
215,53	68,330
215,75	298,738
215,96	484,483
216,18	115,944
216,39	184,282
216,61	438,587
216,83	1052,582
217,04	331,326
217,26	6,322
217,47	395,155
217,69	285,143
217,91	71,100
218,12	1061,327
218,34	79,550
218,55	201,396
218,77	4,524
218,99	131,922
219,20	150,377
219,42	419,795
219,63	108,302
219,85	297,282
220,06	-207,654
220,28	138,423
220,50	99,002
220,71	133,507
220,93	461,549
221,14	394,005
221,36	86,489
221,58	114,144
221,79	15,723
222,01	152,323
222,22	165,824
222,44	41,747
222,65	262,655
222,87	33,723
223,09	66,220
223,30	-48,264
223,52	-23,599
223,73	69,524
223,95	78,548
224,16	22,072
224,38	116,042
224,60	81,894
224,81	66,376
225,03	106,136
225,24	106,407
225,46	8,526
225,67	-10,399
225,89	17,089
226,10	106,833
226,32	74,626
226,54	-43,973
226,75	-5,707
226,97	110,361
227,18	94,404
227,40	79,517
227,61	40,827
227,83	35,020
228,04	82,142
228,26	73,410
228,47	8,038
228,69	73,934
228,91	64,070
229,12	136,544
229,34	30,326
229,55	39,179
229,77	23,919
229,98	29,686
230,20	28,062
230,41	-18,234
230,63	49,454
230,84	23,793
231,06	51,760
231,27	15,719
231,49	38,258
231,71	17,035
231,92	5,343
232,14	-9,646
232,35	37,077
232,57	8,033
232,78	8,659
233,00	19,634
233,21	16,122
233,43	28,485
233,64	5,233
233,86	13,920
234,07	33,386
234,29	0,537
234,50	9,452
234,72	31,356
234,93	17,272
235,15	11,560
235,36	16,569
235,58	43,948
235,79	23,225
236,01	12,488
236,22	12,066
236,44	28,271
236,65	24,788
236,87	14,771
237,08	13,208
237,30	-10,865
237,51	24,128
237,73	18,783
237,94	8,979
238,16	15,177
238,37	10,297
238,59	-1,477
238,80	5,932
239,02	3,462
239,23	23,418
239,45	9,353
239,66	25,075
239,88	25,690
240,09	18,765
240,31	8,812
240,52	-2,148
240,74	14,170
240,95	14,728
241,17	8,156
241,38	9,147
241,60	1,190
241,81	19,165
242,03	-2,894
242,24	11,350
242,46	10,100
242,67	-3,609
242,89	13,849
243,10	10,121
243,32	12,916
243,53	13,117
243,75	7,895
243,96	10,077
244,18	6,930
244,39	13,859
244,60	-1,405
244,82	7,487
245,03	15,650
245,25	9,058
245,46	22,672
245,68	3,005
245,89	25,681
246,11	16,182
246,32	9,229
246,54	9,667
246,75	3,699
246,97	16,862
247,18	16,965
247,39	8,222
247,61	14,095
247,82	14,074
248,04	0,895
248,25	0,985
248,47	6,598
248,68	8,393
248,90	5,360
249,11	6,201
249,33	14,258
249,54	11,384
249,75	9,468
249,97	4,349
250,18	16,334
250,40	11,198
250,61	4,277
250,83	-0,416
251,04	5,106
251,25	16,252
251,47	13,010
251,68	6,625
251,90	6,821
252,11	6,603
252,33	5,239
252,54	5,275
252,76	3,231
252,97	0,080
253,18	6,969
253,40	7,199
253,61	4,176
253,83	6,864
254,04	9,727
254,25	0,665
254,47	0,937
254,68	6,445
254,90	5,752
255,11	0,484
255,33	10,044
255,54	3,989
255,75	2,898
255,97	5,783
256,18	1,622
256,40	8,034
256,61	8,482
256,82	6,334
257,04	8,350
257,25	7,178
257,47	4,206
257,68	11,631
257,89	9,072
258,11	3,794
258,32	10,013
258,54	4,634
258,75	15,588
258,96	8,825
259,18	6,113
259,39	2,398
259,61	8,883
259,82	2,091
260,03	1,850
260,25	6,614
260,46	3,838
260,68	3,057
260,89	4,642
261,10	7,750
261,32	4,629
261,53	-2,221
261,75	6,336
261,96	1,455
262,17	18,597
262,39	10,795
262,60	1,423
262,81	3,556
263,03	9,292
263,24	7,925
263,46	3,306
263,67	6,409
263,88	5,672
264,10	5,616
264,31	5,392
264,52	3,707
264,74	7,658
264,95	5,050
265,17	8,087
265,38	9,677
265,59	9,897
265,81	9,147
266,02	-0,171
266,23	-1,510
266,45	8,510
266,66	8,477
266,87	4,376
267,09	4,724
267,30	7,557
267,52	14,034
267,73	6,397
267,94	2,569
268,16	5,249
268,37	2,415
268,58	6,407
268,80	-1,804
269,01	6,021
269,22	6,852
269,44	7,367
269,65	6,799
269,86	4,704
270,08	6,010
270,29	3,587
270,50	4,778
270,72	9,387
270,93	1,908
271,14	2,209
271,36	2,906
271,57	8,658
271,78	4,236
272,00	3,978
272,21	7,775
272,42	5,962
272,64	9,626
272,85	2,304
273,06	3,053
273,28	5,797
273,49	2,564
273,70	7,487
273,92	5,859
274,13	3,290
274,34	0,141
274,56	8,013
274,77	5,145
274,98	9,602
275,20	7,648
275,41	7,050
275,62	0,926
275,84	7,566
276,05	13,092
276,26	4,115
276,47	2,272
276,69	11,069
276,90	10,282
277,11	5,069
277,33	2,127
277,54	11,711
277,75	6,958
277,97	0,625
278,18	1,108
278,39	9,006
278,61	-0,564
278,82	8,895
279,03	7,726
279,24	1,181
279,46	4,950
279,67	12,882
279,88	2,606
280,10	8,364
280,31	2,922
280,52	1,139
280,73	4,056
280,95	8,339
281,16	5,007
281,37	6,392
281,59	4,537
281,80	8,894
282,01	3,841
282,22	1,784
282,44	4,796
282,65	10,219
282,86	3,564
283,08	2,581
283,29	4,032
283,50	-1,271
283,71	4,931
283,93	4,730
284,14	0,731
284,35	4,643
284,56	5,829
284,78	0,348
284,99	7,215
285,20	11,302
285,42	4,784
285,63	3,588
285,84	1,898
286,05	4,549
286,27	3,625
286,48	6,190
286,69	5,340
286,90	5,900
287,12	3,474
287,33	3,602
287,54	2,648
287,75	9,322
287,97	0,587
288,18	1,422
288,39	4,042
288,60	3,397
288,82	2,501
289,03	3,089
289,24	7,108
289,45	8,680
289,67	4,339
289,88	3,935
290,09	6,789
290,30	3,012
290,52	1,792
290,73	0,180
290,94	2,749
291,15	3,152
291,37	5,515
291,58	4,280
291,79	4,966
292,00	3,957
292,21	2,342
292,43	6,492
292,64	0,571
292,85	3,980
293,06	5,298
293,28	3,813
293,49	2,601
293,70	8,981
293,91	0,985
294,12	4,236
294,34	4,965
294,55	6,714
294,76	7,087
294,97	6,751
295,19	3,913
295,40	3,710
295,61	5,461
295,82	5,212
296,03	4,090
296,25	6,178
296,46	2,888
296,67	2,436
296,88	5,277
297,09	3,929
297,31	1,994
297,52	5,317
297,73	1,382
297,94	3,405
298,15	5,241
298,37	2,629
298,58	2,496
298,79	4,075
299,00	0,844
299,21	3,962
299,43	0,741
299,64	7,775
299,85	3,268
300,06	1,280
300,27	2,118
300,49	8,228
300,70	7,478
300,91	2,858
301,12	4,169
301,33	6,565
301,54	1,671
301,76	4,671
301,97	3,821
302,18	4,958
302,39	7,231
302,60	3,885
302,82	3,173
303,03	8,338
303,24	3,108
303,45	4,993
303,66	6,887
303,87	1,451
304,09	4,645
304,30	1,684
304,51	3,687
304,72	2,008
304,93	5,734
305,14	3,221
305,36	1,926
305,57	0,583
305,78	6,246
305,99	4,773
306,20	4,949
306,41	1,971
306,62	1,836
306,84	2,885
307,05	4,095
307,26	1,872
307,47	9,245
307,68	4,115
307,89	2,662
308,11	5,859
308,32	4,421
308,53	1,795
308,74	1,160
308,95	1,730
309,16	6,699
309,37	3,279
309,59	1,795
309,80	3,004
310,01	4,619
310,22	4,356
310,43	6,233
310,64	4,695
310,85	5,380
311,06	2,404
311,28	5,856
311,49	4,429
311,70	8,359
311,91	3,605
312,12	0,026
312,33	2,319
312,54	3,669
312,75	8,312
312,97	3,163
313,18	7,042
313,39	0,945
313,60	3,355
313,81	3,293
314,02	4,320
314,23	6,788
314,44	2,618
314,65	1,936
314,87	1,781
315,08	2,135
315,29	2,046
315,50	6,650
315,71	10,237
315,92	5,057
316,13	0,149
316,34	4,115
316,55	5,188
316,77	1,384
316,98	3,334
317,19	2,140
317,40	6,704
317,61	7,951
317,82	4,496
318,03	0,279
318,24	5,612
318,45	5,836
318,66	4,856
318,87	2,583
319,09	4,857
319,30	5,924
319,51	5,885
319,72	4,321
319,93	3,611
320,14	4,876
320,35	5,618
320,56	-1,247
320,77	4,321
320,98	7,874
321,19	6,948
321,40	4,251
321,62	4,804
321,83	-0,787
322,04	4,645
322,25	5,383
322,46	7,605
322,67	5,354
322,88	4,126
323,09	3,498
323,30	6,309
323,51	7,935
323,72	4,860
323,93	1,398
324,14	3,258
324,35	-0,262
324,56	2,343
324,77	4,012
324,99	3,729
325,20	1,632
325,41	6,326
325,62	3,231
325,83	-1,766
326,04	2,654
326,25	4,925
326,46	1,391
326,67	4,053
326,88	5,349
327,09	2,052
327,30	3,746
327,51	4,193
327,72	3,820
327,93	1,964
328,14	-0,540
328,35	3,663
328,56	4,845
328,77	4,939
328,98	6,257
329,19	2,818
329,40	4,337
329,61	0,826
329,82	2,009
330,04	5,703
330,25	3,687
330,46	3,719
330,67	2,807
330,88	6,638
331,09	1,873
331,30	5,286
331,51	4,353
331,72	5,986
331,93	5,962
332,14	1,999
332,35	2,546
332,56	3,146
332,77	7,895
332,98	3,201
333,19	3,685
333,40	5,874
333,61	1,820
333,82	6,186
334,03	3,986
334,24	9,991
334,45	4,806
334,66	5,928
334,87	4,524
335,08	2,695
335,29	2,217
335,50	4,998
335,71	0,139
335,92	6,094
336,13	4,008
336,34	3,759
336,55	3,742
336,76	6,682
336,97	2,859
337,18	4,875
337,39	4,888
337,60	6,242
337,81	5,945
338,02	6,789
338,23	3,466
338,44	5,343
338,65	-0,497
338,86	4,201
339,07	5,023
339,28	3,578
339,49	3,741
339,70	0,987
339,91	3,439
340,11	7,728
340,32	5,273
340,53	0,142
340,74	-0,068
340,95	2,129
341,16	4,973
341,37	2,480
341,58	4,275
341,79	1,075
342,00	2,925
342,21	-1,507
342,42	2,940
342,63	7,959
342,84	6,146
343,05	4,360
343,26	7,028
343,47	6,875
343,68	1,558
343,89	0,936
344,10	2,276
344,31	5,727
344,52	6,669
344,73	2,482
344,94	0,977
345,14	3,140
345,35	3,346
345,56	1,744
345,77	2,300
345,98	1,709
346,19	5,845
346,40	5,541
346,61	-0,767
346,82	4,590
347,03	6,554
347,24	0,789
347,45	3,575
347,66	6,386
347,87	1,281
348,08	7,807
348,28	3,201
348,49	0,704
348,70	5,414
348,91	4,299
349,12	3,077
349,33	-2,555
349,54	5,677
349,75	5,488
349,96	3,174
350,17	6,774
350,38	1,755
350,59	3,672
350,80	2,033
351,00	2,990
351,21	11,932
351,42	2,250
351,63	1,605
351,84	4,375
352,05	7,877
352,26	2,527
352,47	4,898
352,68	7,535
352,89	3,633
353,09	1,987
353,30	1,647
353,51	2,113
353,72	9,467
353,93	8,004
354,14	3,778
354,35	3,196
354,56	8,262
354,77	1,516
354,98	3,744
355,18	5,895
355,39	10,626
355,60	1,287
355,81	5,722
356,02	4,339
356,23	1,486
356,44	6,318
356,65	4,679
356,85	6,822
357,06	8,480
357,27	4,105
357,48	2,331
357,69	6,103
357,90	5,404
358,11	-2,403
358,32	3,301
358,52	8,278
358,73	4,920
358,94	3,391
359,15	3,672
359,36	6,412
359,57	3,941
359,78	7,557
359,98	5,938
360,19	0,754
360,40	3,619
360,61	7,407
360,82	2,582
361,03	11,271
361,24	15,183
361,44	2,595
361,65	4,053
361,86	0,730
362,07	5,118
362,28	9,804
362,49	4,476
362,70	7,089
362,90	2,080
363,11	2,137
363,32	0,907
363,53	2,912
363,74	10,769
363,95	7,791
364,15	3,213
364,36	5,806
364,57	2,603
364,78	0,200
364,99	1,619
365,20	6,105
365,40	6,401
365,61	6,158
365,82	4,452
366,03	11,178
366,24	1,491
366,45	-2,415
366,65	0,751
366,86	3,569
367,07	2,646
367,28	1,436
367,49	0,860
367,69	6,818
367,90	1,960
368,11	4,373
368,32	2,947
368,53	7,832
368,73	1,818
368,94	3,732
369,15	6,392
369,36	3,895
369,57	3,262
369,78	3,899
369,98	4,819
370,19	8,054
370,40	2,737
370,61	3,430
370,82	4,991
371,02	8,458
371,23	5,571
371,44	3,612
371,65	1,800
371,85	9,544
372,06	0,378
372,27	5,148
372,48	1,711
372,69	8,418
372,89	5,397
373,10	5,043
373,31	3,976
373,52	4,255
373,73	5,729
373,93	5,275
374,14	5,304
374,35	6,083
374,56	4,734
374,76	5,460
374,97	4,237
375,18	8,986
375,39	3,516
375,60	6,646
375,80	3,529
376,01	2,915
376,22	6,200
376,43	4,048
376,63	4,090
376,84	3,146
377,05	5,372
377,26	2,048
377,46	4,550
377,67	4,141
377,88	1,604
378,09	3,960
378,29	3,738
378,50	5,181
378,71	5,657
378,92	0,917
379,12	1,439
379,33	3,801
379,54	4,229
379,75	7,213
379,95	4,279
380,16	6,516
380,37	4,598
380,58	3,047
380,78	5,534
380,99	0,283
381,20	2,097
381,41	5,668
381,61	3,431
381,82	4,506
382,03	3,715
382,24	5,533
382,44	1,716
382,65	4,878
382,86	9,673
383,06	9,396
383,27	5,977
383,48	2,371
383,69	4,140
383,89	1,146
384,10	0,762
384,31	5,131
384,51	7,359
384,72	6,088
384,93	2,020
385,14	0,347
385,34	3,305
385,55	2,429
385,76	0,254
385,96	8,653
386,17	3,560
386,38	2,082
386,59	8,605
386,79	5,514
387,00	9,768
387,21	8,107
387,41	5,049
387,62	6,600
387,83	8,443
388,03	1,666
388,24	3,138
388,45	4,983
388,66	7,588
388,86	2,001
389,07	3,814
389,28	14,955
389,48	4,200
389,69	5,709
389,90	0,036
390,10	-0,338
390,31	7,501
390,52	3,716
390,72	4,435
390,93	7,180
391,14	5,026
391,34	4,114
391,55	4,214
391,76	7,433
391,96	9,383
392,17	0,745
392,38	3,950
392,58	2,548
392,79	3,861
393,00	1,142
393,20	6,094
393,41	5,651
393,62	7,579
393,82	1,837
394,03	6,888
394,24	2,025
394,44	7,578
394,65	8,124
394,86	3,009
395,06	7,553
395,27	4,855
395,48	2,616
395,68	0,391
395,89	3,850
396,10	8,574
396,30	0,216
396,51	3,045
396,72	5,147
396,92	-0,034
397,13	7,192
397,34	1,569
397,54	5,851
397,75	1,811
397,95	2,291
398,16	2,859
398,37	6,584
398,57	-1,777
398,78	2,398
398,99	5,698
399,19	6,719
399,40	10,098
399,60	2,395
399,81	7,350
400,02	9,405
400,22	5,826
400,43	7,402
400,64	1,125
400,84	0,629
401,05	4,874
401,25	3,980
401,46	1,849
401,67	7,595
401,87	1,271
402,08	0,910
402,29	5,474
402,49	9,766
402,70	6,230
402,90	0,012
403,11	6,887
403,32	-0,160
403,52	0,496
403,73	1,544
403,93	5,834
404,14	9,467
404,35	2,311
404,55	-0,012
404,76	5,335
404,96	3,311
405,17	5,827
405,38	9,478
405,58	5,808
405,79	8,987
405,99	8,352
406,20	3,441
406,40	4,401
406,61	3,760
406,82	4,019
407,02	3,807
407,23	0,528
407,43	3,529
407,64	-1,594
407,85	3,927
408,05	-1,761
408,26	13,203
408,46	11,001
408,67	6,012
408,87	2,786
409,08	0,511
409,29	12,529
409,49	6,478
409,70	5,155
409,90	4,964
410,11	4,794
410,31	7,110
410,52	5,046
410,72	2,098
410,93	8,122
411,14	3,960
411,34	-1,384
411,55	2,239
411,75	7,788
411,96	9,130
412,16	7,751
412,37	4,141
412,57	4,776
412,78	9,900
412,99	0,316
413,19	6,598
413,40	2,935
413,60	3,795
413,81	5,033
414,01	2,026
414,22	3,669
414,42	4,774
414,63	4,080
414,83	3,080
415,04	9,915
415,24	5,865
415,45	4,162
415,65	4,354
415,86	8,559
416,07	2,680
416,27	6,775
416,48	9,019
416,68	12,906
416,89	1,532
417,09	8,719
417,30	12,197
417,50	-0,385
417,71	6,428
417,91	6,260
418,12	5,127
418,32	6,348
418,53	0,754
418,73	5,244
418,94	3,018
419,14	10,520
419,35	2,166
419,55	5,025
419,76	9,619
419,96	7,564
420,17	4,167
420,37	1,783
420,58	7,933
420,78	6,580
420,99	3,873
421,19	6,159
421,40	10,660
421,60	11,124
421,81	2,211
422,01	4,368
422,22	5,873
422,42	7,810
422,63	9,011
422,83	6,942
423,04	12,432
423,24	15,279
423,45	6,112
423,65	6,080
423,86	10,436
424,06	7,894
424,27	3,285
424,47	6,335
424,67	2,634
424,88	8,659
425,08	3,310
425,29	8,223
425,49	1,892
425,70	4,719
425,90	7,326
426,11	5,965
426,31	6,940
426,52	8,038
426,72	5,220
426,93	4,242
427,13	9,602
427,33	3,433
427,54	8,916
427,74	7,619
427,95	12,955
428,15	7,673
428,36	5,383
428,56	4,557
428,77	8,436
428,97	7,537
429,18	5,881
429,38	5,194
429,58	8,212
429,79	10,316
429,99	4,570
430,20	9,407
430,40	10,272
430,61	4,119
430,81	5,902
431,01	10,825
431,22	11,265
431,42	8,354
431,63	3,359
431,83	8,344
432,04	14,243
432,24	9,505
432,44	8,398
432,65	6,793
432,85	7,423
433,06	9,805
433,26	6,459
433,47	5,257
433,67	5,566
433,87	6,722
434,08	7,721
434,28	2,769
434,49	8,260
434,69	16,355
434,89	9,537
435,10	5,942
435,30	11,844
435,51	7,276
435,71	5,201
435,91	6,770
436,12	6,060
436,32	4,271
436,53	8,056
436,73	5,792
436,93	9,657
437,14	6,990
437,34	8,581
437,55	4,294
437,75	9,621
437,95	10,509
438,16	3,690
438,36	7,521
438,57	7,089
438,77	2,072
438,97	10,634
439,18	9,353
439,38	7,834
439,58	6,881
439,79	9,879
439,99	3,120
440,20	10,833
440,40	13,520
440,60	9,745
440,81	6,913
441,01	10,104
441,21	11,269
441,42	8,927
441,62	10,658
441,83	8,867
442,03	6,376
442,23	11,966
442,44	10,941
442,64	10,156
442,84	4,375
443,05	9,632
443,25	8,744
443,45	9,869
443,66	7,751
443,86	7,241
444,06	10,675
444,27	6,577
444,47	10,336
444,67	11,152
444,88	8,477
445,08	9,209
445,28	5,119
445,49	9,416
445,69	8,496
445,90	11,437
446,10	12,572
446,30	6,781
446,51	8,388
446,71	12,529
446,91	10,587
447,12	15,553
447,32	6,496
447,52	10,490
447,72	16,416
447,93	6,266
448,13	7,147
448,33	17,878
448,54	11,805
448,74	6,308
448,94	8,857
449,15	15,269
449,35	6,754
449,55	12,248
449,76	10,829
449,96	9,041
450,16	11,235
450,37	8,430
450,57	9,851
450,77	7,425
450,98	11,772
451,18	13,084
451,38	13,173
451,58	16,704
451,79	7,719
451,99	6,830
452,19	14,832
452,40	19,155
452,60	5,891
452,80	12,568
453,00	12,331
453,21	7,473
453,41	13,777
453,61	10,714
453,82	13,446
454,02	9,557
454,22	20,927
454,42	12,419
454,63	8,984
454,83	7,465
455,03	16,537
455,24	9,814
455,44	10,520
455,64	8,683
