Fichero De Datos De SpectraSuite
++++++++++++++++++++++++++++++++++++
Fecha: Wed Apr 22 08:47:31 CEST 2009
Usuario: evoflor
Presente Oscuro Del Espectro: Sí
La Referencia de Presente Del Espectro De: Sí
Muestreados de los componentes de Número de espectros: 1
Espectrómetros: USB4F02353
Tiempo de integración (usec): 500000 (USB4F02353)
Promedio de Espectros Hechos un: 5 (USB4F02353)
El Alisar Del Furgón: 0 (USB4F02353)
Párrafo de de Corregir del la del del de Eléctrica del obscuridad: Sí (USB4F02353)
Estrobo/Lámpara Permitido: No (USB4F02353)
Correct for Detector Non-linearity: No (USB4F02353)
Párrafo de de Corregir del la del del de Externa del luz: No (USB4F02353)
Procesado del espectro de Número de pixeles en: 3648
>>>>> Comienza Data<<<<< Espectral Procesado Del EL
177,79	751,282
178,00	751,282
178,22	751,282
178,44	-7542,857
178,66	540,854
178,88	125,743
179,09	3245,244
179,31	199,027
179,53	-7173,823
179,75	292,238
179,96	-82,467
180,18	207,836
180,40	-392,751
180,62	-178,248
180,83	477,921
181,05	-1040,033
181,27	-1042,666
181,49	184,196
181,70	-384,581
181,92	416,223
182,14	201,131
182,36	-1188,094
182,58	199,804
182,79	-920,460
183,01	-12086,888
183,23	427,689
183,45	-71,526
183,66	92,164
183,88	706,048
184,10	856,556
184,32	1015,508
184,53	-221,514
184,75	464,648
184,97	-163,820
185,18	977,790
185,40	337,793
185,62	-290,002
185,84	1469,159
186,05	3783,950
186,27	-5417,222
186,49	-1413,391
186,71	216,368
186,92	396,578
187,14	1529,891
187,36	284,415
187,58	989,302
187,79	-574,291
188,01	-1033,842
188,23	70,727
188,45	130,901
188,66	-60,753
188,88	217,507
189,10	-356,708
189,31	-104,455
189,53	4,691
189,75	1235,167
189,97	174,563
190,18	540,776
190,40	917,406
190,62	152,951
190,83	491,977
191,05	-151,596
191,27	6141,301
191,49	503,135
191,70	363,644
191,92	508,711
192,14	447,519
192,35	-1348,983
192,57	-665,017
192,79	-1810,503
193,01	411,857
193,22	-420,113
193,44	-420,026
193,66	302,887
193,87	694,524
194,09	144,131
194,31	231,117
194,53	-423,149
194,74	467,511
194,96	-113,820
195,18	600,752
195,39	-1225,449
195,61	-376,778
195,83	3322,260
196,04	375,506
196,26	247,862
196,48	1988,114
196,70	693,651
196,91	203,368
197,13	-35,476
197,35	277,796
197,56	-462,118
197,78	5908,766
198,00	352,824
198,21	347,030
198,43	886,237
198,65	249,672
198,86	147,467
199,08	613,407
199,30	118,762
199,51	993,017
199,73	-2862,417
199,95	226,922
200,16	553,554
200,38	165,788
200,60	3451,047
200,81	-655,763
201,03	10518,660
201,25	643,031
201,46	-474,489
201,68	515,596
201,90	464,172
202,11	311,007
202,33	184,254
202,55	117,924
202,76	736,641
202,98	529,903
203,20	225,477
203,41	-554,046
203,63	647,437
203,85	189,378
204,06	-138,989
204,28	209,554
204,50	-235,093
204,71	470,204
204,93	134,524
205,15	171,174
205,36	-188,750
205,58	257,293
205,80	-1698,132
206,01	-6486,106
206,23	238,766
206,45	446,505
206,66	471,207
206,88	-636,552
207,10	2959,612
207,31	-42214,570
207,53	7,575
207,75	-138,220
207,96	358,847
208,18	392,145
208,39	281,640
208,61	738,071
208,83	8799,139
209,04	382,328
209,26	382,314
209,48	114,079
209,69	-146,690
209,91	971,419
210,13	9,508
210,34	163,739
210,56	296,940
210,77	2954,663
210,99	350,605
211,21	-247,384
211,42	126,096
211,64	555,607
211,86	435,540
212,07	283,344
212,29	670,579
212,50	1041,518
212,72	189,829
212,94	246,082
213,15	231,268
213,37	824,189
213,58	139,238
213,80	371,880
214,02	2698,218
214,23	375,915
214,45	279,917
214,67	63,395
214,88	-115,125
215,10	1196,219
215,31	1397,632
215,53	9,694
215,75	349,435
215,96	582,525
216,18	117,343
216,39	265,644
216,61	503,390
216,83	1054,483
217,04	286,078
217,26	16,608
217,47	544,591
217,69	340,863
217,91	83,940
218,12	910,416
218,34	87,705
218,55	219,554
218,77	41,713
218,99	161,601
219,20	170,946
219,42	523,054
219,63	107,674
219,85	252,398
220,06	-216,137
220,28	165,255
220,50	70,134
220,71	111,273
220,93	461,113
221,14	379,291
221,36	98,110
221,58	87,268
221,79	45,210
222,01	124,421
222,22	122,606
222,44	101,953
222,65	266,724
222,87	80,004
223,09	72,863
223,30	49,631
223,52	20,252
223,73	98,178
223,95	84,780
224,16	23,413
224,38	99,979
224,60	79,929
224,81	88,553
225,03	111,867
225,24	66,976
225,46	-15,092
225,67	18,505
225,89	50,027
226,10	129,012
226,32	54,887
226,54	-31,017
226,75	31,814
226,97	132,485
227,18	96,720
227,40	95,182
227,61	38,122
227,83	37,368
228,04	112,426
228,26	65,633
228,47	14,059
228,69	73,016
228,91	62,881
229,12	111,507
229,34	28,589
229,55	66,837
229,77	24,865
229,98	25,356
230,20	38,182
230,41	15,012
230,63	86,205
230,84	45,484
231,06	53,669
231,27	-2,812
231,49	31,914
231,71	8,290
231,92	6,675
232,14	0,719
232,35	37,746
232,57	-2,585
232,78	18,940
233,00	22,415
233,21	9,415
233,43	11,488
233,64	0,290
233,86	16,081
234,07	39,350
234,29	8,684
234,50	15,745
234,72	19,278
234,93	16,161
235,15	2,426
235,36	16,920
235,58	50,481
235,79	25,668
236,01	10,002
236,22	18,264
236,44	41,975
236,65	14,908
236,87	15,475
237,08	11,176
237,30	0,886
237,51	21,850
237,73	14,852
237,94	10,290
238,16	13,007
238,37	8,103
238,59	4,771
238,80	12,002
239,02	2,975
239,23	25,420
239,45	9,781
239,66	21,264
239,88	22,302
240,09	19,288
240,31	6,817
240,52	3,790
240,74	12,311
240,95	10,160
241,17	10,113
241,38	8,702
241,60	3,047
241,81	21,544
242,03	-0,150
242,24	15,324
242,46	12,458
242,67	-2,863
242,89	14,119
243,10	13,221
243,32	13,662
243,53	10,056
243,75	3,765
243,96	11,630
244,18	10,388
244,39	16,242
244,60	1,167
244,82	4,693
245,03	14,024
245,25	6,327
245,46	21,380
245,68	1,457
245,89	26,483
246,11	14,654
246,32	7,032
246,54	11,676
246,75	4,428
246,97	14,248
247,18	17,610
247,39	6,521
247,61	11,624
247,82	11,692
248,04	3,108
248,25	4,050
248,47	6,474
248,68	12,834
248,90	6,124
249,11	8,363
249,33	14,808
249,54	9,713
249,75	11,111
249,97	2,575
250,18	16,886
250,40	11,981
250,61	3,858
250,83	2,172
251,04	8,034
251,25	14,114
251,47	12,902
251,68	4,556
251,90	7,849
252,11	7,281
252,33	4,721
252,54	6,128
252,76	1,797
252,97	-2,997
253,18	8,329
253,40	10,477
253,61	7,037
253,83	7,393
254,04	10,539
254,25	2,869
254,47	1,079
254,68	10,137
254,90	5,627
255,11	1,379
255,33	10,437
255,54	4,790
255,75	4,474
255,97	6,475
256,18	5,925
256,40	5,898
256,61	7,735
256,82	3,469
257,04	10,554
257,25	4,354
257,47	7,939
257,68	9,726
257,89	7,346
258,11	4,103
258,32	11,144
258,54	4,060
258,75	14,362
258,96	7,972
259,18	4,706
259,39	3,336
259,61	8,176
259,82	3,298
260,03	1,005
260,25	8,368
260,46	5,725
260,68	3,406
260,89	2,672
261,10	7,478
261,32	5,508
261,53	0,004
261,75	9,808
261,96	2,272
262,17	17,341
262,39	10,234
262,60	2,406
262,81	4,963
263,03	11,375
263,24	8,267
263,46	4,650
263,67	6,878
263,88	9,339
264,10	4,817
264,31	6,233
264,52	6,759
264,74	7,866
264,95	6,165
265,17	10,491
265,38	8,391
265,59	10,577
265,81	8,675
266,02	0,136
266,23	0,619
266,45	10,778
266,66	9,042
266,87	7,872
267,09	4,394
267,30	10,575
267,52	10,843
267,73	6,595
267,94	0,910
268,16	7,071
268,37	2,303
268,58	6,297
268,80	-0,322
269,01	5,805
269,22	7,745
269,44	11,137
269,65	5,326
269,86	2,965
270,08	6,026
270,29	2,826
270,50	3,577
270,72	8,165
270,93	3,507
271,14	6,354
271,36	2,973
271,57	9,105
271,78	4,586
272,00	5,115
272,21	8,109
272,42	5,187
272,64	9,742
272,85	1,581
273,06	4,186
273,28	7,664
273,49	3,192
273,70	6,716
273,92	4,586
274,13	5,532
274,34	-3,165
274,56	5,998
274,77	5,060
274,98	12,015
275,20	9,499
275,41	5,170
275,62	2,715
275,84	6,254
276,05	13,704
276,26	3,886
276,47	1,795
276,69	10,641
276,90	9,429
277,11	1,689
277,33	-0,169
277,54	11,536
277,75	5,018
277,97	0,027
278,18	2,218
278,39	7,742
278,61	0,099
278,82	9,022
279,03	7,413
279,24	2,483
279,46	5,869
279,67	10,373
279,88	4,645
280,10	10,048
280,31	4,904
280,52	0,026
280,73	2,872
280,95	7,749
281,16	5,109
281,37	5,750
281,59	4,839
281,80	8,864
282,01	3,900
282,22	2,184
282,44	5,346
282,65	12,102
282,86	6,578
283,08	1,817
283,29	5,120
283,50	0,481
283,71	5,991
283,93	5,001
284,14	1,836
284,35	6,526
284,56	5,094
284,78	-0,060
284,99	6,899
285,20	10,242
285,42	4,054
285,63	4,380
285,84	2,477
286,05	4,865
286,27	2,734
286,48	7,292
286,69	3,949
286,90	1,662
287,12	4,007
287,33	4,043
287,54	2,540
287,75	8,792
287,97	3,485
288,18	3,402
288,39	4,448
288,60	5,103
288,82	3,357
289,03	3,158
289,24	6,670
289,45	7,307
289,67	5,333
289,88	3,777
290,09	9,372
290,30	5,428
290,52	3,641
290,73	1,765
290,94	3,618
291,15	4,443
291,37	5,545
291,58	2,572
291,79	4,105
292,00	5,859
292,21	4,106
292,43	5,826
292,64	0,471
292,85	5,656
293,06	6,501
293,28	4,437
293,49	3,667
293,70	8,311
293,91	-0,034
294,12	5,680
294,34	4,201
294,55	5,303
294,76	6,026
294,97	7,821
295,19	4,482
295,40	5,108
295,61	5,366
295,82	5,860
296,03	4,431
296,25	5,468
296,46	2,951
296,67	2,288
296,88	6,596
297,09	3,387
297,31	0,969
297,52	5,499
297,73	2,516
297,94	2,171
298,15	7,885
298,37	3,924
298,58	2,822
298,79	4,374
299,00	-1,041
299,21	5,827
299,43	0,769
299,64	9,391
299,85	2,620
300,06	1,223
300,27	4,013
300,49	7,127
300,70	7,100
300,91	0,894
301,12	2,849
301,33	7,916
301,54	1,478
301,76	4,946
301,97	3,984
302,18	6,218
302,39	6,801
302,60	4,874
302,82	2,611
303,03	8,783
303,24	4,999
303,45	6,620
303,66	6,595
303,87	1,563
304,09	5,936
304,30	1,695
304,51	2,001
304,72	2,673
304,93	5,482
305,14	3,587
305,36	3,787
305,57	1,487
305,78	8,127
305,99	3,964
306,20	4,793
306,41	-0,288
306,62	2,328
306,84	4,432
307,05	4,889
307,26	2,107
307,47	10,397
307,68	3,091
307,89	2,111
308,11	5,177
308,32	3,354
308,53	3,058
308,74	0,967
308,95	1,086
309,16	10,020
309,37	5,059
309,59	1,601
309,80	3,785
310,01	3,919
310,22	4,234
310,43	6,963
310,64	6,586
310,85	5,340
311,06	1,942
311,28	4,379
311,49	4,103
311,70	7,421
311,91	2,900
312,12	2,208
312,33	2,661
312,54	6,191
312,75	9,390
312,97	3,660
313,18	6,651
313,39	2,091
313,60	3,707
313,81	3,879
314,02	6,192
314,23	6,665
314,44	3,717
314,65	2,572
314,87	0,983
315,08	3,706
315,29	1,349
315,50	4,613
315,71	8,716
315,92	8,422
316,13	2,150
316,34	4,720
316,55	7,604
316,77	2,065
316,98	1,360
317,19	3,133
317,40	5,817
317,61	9,165
317,82	6,380
318,03	1,655
318,24	4,239
318,45	8,239
318,66	5,218
318,87	2,355
319,09	5,260
319,30	6,772
319,51	7,589
319,72	6,556
319,93	5,021
320,14	5,217
320,35	7,510
320,56	1,312
320,77	4,979
320,98	8,011
321,19	7,012
321,40	6,634
321,62	4,449
321,83	-0,461
322,04	5,913
322,25	6,186
322,46	10,773
322,67	5,081
322,88	7,702
323,09	2,655
323,30	9,469
323,51	9,723
323,72	4,711
323,93	1,356
324,14	2,367
324,35	0,581
324,56	2,624
324,77	4,352
324,99	5,008
325,20	3,664
325,41	4,970
325,62	5,439
325,83	-0,416
326,04	2,787
326,25	4,354
326,46	1,604
326,67	3,251
326,88	6,822
327,09	2,340
327,30	6,086
327,51	5,936
327,72	2,365
327,93	4,805
328,14	1,976
328,35	3,968
328,56	3,526
328,77	7,346
328,98	6,668
329,19	4,871
329,40	4,851
329,61	1,849
329,82	1,395
330,04	6,502
330,25	3,220
330,46	4,017
330,67	3,679
330,88	5,301
331,09	2,523
331,30	5,750
331,51	5,642
331,72	5,943
331,93	6,455
332,14	2,895
332,35	5,605
332,56	3,157
332,77	8,421
332,98	3,576
333,19	4,157
333,40	5,759
333,61	3,735
333,82	3,816
334,03	5,855
334,24	11,144
334,45	5,795
334,66	6,067
334,87	4,385
335,08	2,526
335,29	2,528
335,50	5,285
335,71	1,560
335,92	6,614
336,13	5,197
336,34	2,458
336,55	4,339
336,76	6,946
336,97	5,949
337,18	4,209
337,39	5,177
337,60	6,327
337,81	4,463
338,02	7,265
338,23	3,630
338,44	3,856
338,65	3,044
338,86	6,842
339,07	4,959
339,28	2,970
339,49	3,623
339,70	1,247
339,91	5,345
340,11	6,586
340,32	5,650
340,53	4,375
340,74	-0,076
340,95	1,365
341,16	4,697
341,37	4,088
341,58	5,791
341,79	2,074
342,00	0,197
342,21	-1,320
342,42	4,113
342,63	7,990
342,84	5,906
343,05	4,353
343,26	8,885
343,47	4,618
343,68	3,037
343,89	1,218
344,10	1,659
344,31	4,878
344,52	5,735
344,73	2,629
344,94	1,589
345,14	4,441
345,35	5,466
345,56	2,792
345,77	1,368
345,98	2,795
346,19	6,482
346,40	6,489
346,61	2,137
346,82	4,342
347,03	7,678
347,24	0,945
347,45	3,725
347,66	6,744
347,87	4,716
348,08	7,372
348,28	2,939
348,49	4,736
348,70	4,342
348,91	4,408
349,12	4,925
349,33	-1,380
349,54	6,464
349,75	5,577
349,96	5,051
350,17	6,399
350,38	3,410
350,59	3,261
350,80	2,214
351,00	2,205
351,21	10,674
351,42	2,482
351,63	3,701
351,84	2,974
352,05	7,624
352,26	4,184
352,47	7,929
352,68	8,052
352,89	6,249
353,09	2,500
353,30	2,048
353,51	0,423
353,72	9,074
353,93	7,419
354,14	2,223
354,35	4,144
354,56	7,216
354,77	3,034
354,98	1,973
355,18	6,280
355,39	10,764
355,60	3,170
355,81	6,393
356,02	3,658
356,23	2,696
356,44	6,562
356,65	2,921
356,85	8,757
357,06	9,030
357,27	5,898
357,48	0,969
357,69	8,458
357,90	7,637
358,11	-0,294
358,32	2,571
358,52	6,472
358,73	4,151
358,94	4,395
359,15	3,706
359,36	7,011
359,57	2,593
359,78	8,651
359,98	5,800
360,19	1,707
360,40	2,250
360,61	7,630
360,82	4,999
361,03	11,860
361,24	16,108
361,44	2,272
361,65	5,264
361,86	1,853
362,07	3,442
362,28	10,188
362,49	4,738
362,70	6,678
362,90	5,956
363,11	4,781
363,32	2,860
363,53	2,862
363,74	9,397
363,95	8,384
364,15	3,913
364,36	8,416
364,57	2,847
364,78	2,381
364,99	2,340
365,20	5,479
365,40	8,396
365,61	4,645
365,82	5,159
366,03	9,733
366,24	2,941
366,45	1,547
366,65	0,997
366,86	5,001
367,07	4,116
367,28	1,931
367,49	1,918
367,69	4,868
367,90	3,921
368,11	13,374
368,32	5,808
368,53	7,572
368,73	4,031
368,94	3,242
369,15	6,889
369,36	7,512
369,57	6,331
369,78	5,524
369,98	5,179
370,19	7,542
370,40	1,288
370,61	3,898
370,82	6,628
371,02	9,791
371,23	5,540
371,44	5,459
371,65	3,036
371,85	7,739
372,06	2,484
372,27	7,216
372,48	2,775
372,69	8,873
372,89	4,391
373,10	3,979
373,31	5,003
373,52	5,416
373,73	8,681
373,93	5,466
374,14	4,088
374,35	3,006
374,56	4,454
374,76	5,318
374,97	4,674
375,18	8,206
375,39	6,147
375,60	6,550
375,80	2,891
376,01	3,084
376,22	5,468
376,43	5,137
376,63	3,709
376,84	6,272
377,05	6,867
377,26	3,881
377,46	2,606
377,67	4,069
377,88	-0,221
378,09	6,212
378,29	5,701
378,50	3,557
378,71	6,093
378,92	1,469
379,12	0,365
379,33	3,905
379,54	5,253
379,75	7,376
379,95	6,226
380,16	5,402
380,37	5,830
380,58	1,928
380,78	5,618
380,99	4,473
381,20	3,827
381,41	9,519
381,61	2,883
381,82	4,825
382,03	6,506
382,24	6,402
382,44	2,080
382,65	5,947
382,86	9,572
383,06	8,563
383,27	7,295
383,48	2,848
383,69	5,960
383,89	1,483
384,10	0,894
384,31	6,324
384,51	8,158
384,72	7,506
384,93	3,499
385,14	2,464
385,34	1,077
385,55	3,604
385,76	2,468
385,96	8,644
386,17	3,018
386,38	3,366
386,59	8,928
386,79	7,715
387,00	11,706
387,21	8,590
387,41	4,237
387,62	4,139
387,83	10,714
388,03	3,239
388,24	5,639
388,45	4,905
388,66	7,602
388,86	2,371
389,07	4,021
389,28	13,936
389,48	6,180
389,69	4,275
389,90	0,793
390,10	3,906
390,31	11,622
390,52	4,740
390,72	6,753
390,93	5,901
391,14	4,421
391,34	7,581
391,55	6,169
391,76	9,936
391,96	11,431
392,17	6,482
392,38	4,450
392,58	5,960
392,79	5,336
393,00	1,792
393,20	4,750
393,41	4,214
393,62	11,134
393,82	2,600
394,03	8,830
394,24	3,891
394,44	10,989
394,65	9,779
394,86	6,185
395,06	11,607
395,27	9,594
395,48	6,992
395,68	3,767
395,89	7,288
396,10	10,254
396,30	2,020
396,51	3,816
396,72	6,005
396,92	2,998
397,13	10,474
397,34	3,140
397,54	9,241
397,75	5,719
397,95	4,197
398,16	6,437
398,37	8,013
398,57	2,570
398,78	5,354
398,99	7,539
399,19	8,636
399,40	13,520
399,60	7,783
399,81	10,027
400,02	15,737
400,22	10,481
400,43	14,380
400,64	4,937
400,84	3,870
401,05	11,136
401,25	9,813
401,46	5,364
401,67	11,647
401,87	9,318
402,08	4,914
402,29	8,858
402,49	14,908
402,70	10,603
402,90	6,330
403,11	11,319
403,32	3,309
403,52	5,517
403,73	8,267
403,93	11,992
404,14	17,475
404,35	7,614
404,55	5,155
404,76	11,766
404,96	11,475
405,17	16,140
405,38	16,714
405,58	8,947
405,79	15,746
405,99	15,047
406,20	11,825
406,40	10,449
406,61	11,371
406,82	10,424
407,02	10,983
407,23	8,837
407,43	11,862
407,64	5,590
407,85	13,253
408,05	5,757
408,26	19,415
408,46	18,861
408,67	11,725
408,87	13,217
409,08	11,322
409,29	19,896
409,49	16,841
409,70	12,140
409,90	12,503
410,11	13,641
410,31	15,671
410,52	13,409
410,72	11,771
410,93	16,779
411,14	13,125
411,34	10,953
411,55	13,163
411,75	16,205
411,96	16,216
412,16	12,684
412,37	11,631
412,57	17,796
412,78	17,047
412,99	13,794
413,19	16,400
413,40	15,679
413,60	13,844
413,81	14,277
414,01	13,837
414,22	16,081
414,42	15,078
414,63	14,922
414,83	14,781
415,04	19,203
415,24	17,425
415,45	14,307
415,65	17,315
415,86	20,028
416,07	14,905
416,27	19,524
416,48	17,866
416,68	25,555
416,89	13,700
417,09	19,331
417,30	22,873
417,50	12,699
417,71	20,737
417,91	17,992
418,12	17,526
418,32	17,142
418,53	15,973
418,73	17,957
418,94	19,050
419,14	20,641
419,35	16,903
419,55	18,463
419,76	21,711
419,96	20,654
420,17	16,619
420,37	17,348
420,58	20,581
420,78	20,654
420,99	15,341
421,19	23,886
421,40	25,701
421,60	21,549
421,81	16,501
422,01	18,976
422,22	19,637
422,42	23,775
422,63	22,086
422,83	21,941
423,04	26,863
423,24	31,789
423,45	23,011
423,65	18,708
423,86	24,700
424,06	24,794
424,27	22,160
424,47	21,411
424,67	18,062
424,88	21,617
425,08	19,755
425,29	25,209
425,49	16,090
425,70	18,095
425,90	19,588
426,11	21,668
426,31	21,817
426,52	22,845
426,72	22,493
426,93	20,479
427,13	27,580
427,33	21,096
427,54	22,833
427,74	21,499
427,95	29,475
428,15	22,821
428,36	21,935
428,56	19,750
428,77	23,040
428,97	24,131
429,18	21,298
429,38	21,964
429,58	22,880
429,79	25,539
429,99	20,573
430,20	23,804
430,40	28,189
430,61	18,751
430,81	21,745
431,01	27,730
431,22	27,509
431,42	22,246
431,63	17,576
431,83	24,268
432,04	28,097
432,24	24,790
432,44	25,133
432,65	21,712
432,85	22,258
433,06	25,104
433,26	22,148
433,47	23,884
433,67	19,881
433,87	25,538
434,08	24,800
434,28	20,273
434,49	23,731
434,69	32,049
434,89	27,254
435,10	21,936
435,30	28,488
435,51	23,304
435,71	21,775
435,91	23,689
436,12	22,182
436,32	21,598
436,53	22,313
436,73	20,877
436,93	24,714
437,14	23,974
437,34	24,606
437,55	20,083
437,75	25,945
437,95	26,268
438,16	19,971
438,36	24,852
438,57	24,965
438,77	22,879
438,97	27,991
439,18	26,734
439,38	23,166
439,58	21,392
439,79	21,800
439,99	18,719
440,20	29,204
440,40	29,977
440,60	26,830
440,81	23,036
441,01	27,581
441,21	28,577
441,42	26,337
441,62	24,275
441,83	26,179
442,03	20,957
442,23	27,498
442,44	26,523
442,64	27,525
442,84	23,016
443,05	30,399
443,25	21,882
443,45	27,460
443,66	27,372
443,86	23,596
444,06	28,244
444,27	23,284
444,47	29,955
444,67	27,888
444,88	27,112
445,08	26,616
445,28	22,974
445,49	25,799
445,69	26,168
445,90	27,293
446,10	28,588
446,30	22,725
446,51	23,604
446,71	29,249
446,91	28,036
447,12	33,010
447,32	24,674
447,52	27,615
447,72	28,327
447,93	25,144
448,13	21,215
448,33	30,410
448,54	26,554
448,74	23,171
448,94	25,242
449,15	30,359
449,35	22,747
449,55	28,763
449,76	25,371
449,96	25,991
450,16	25,891
450,37	23,116
450,57	27,109
450,77	24,213
450,98	24,711
451,18	28,371
451,38	29,123
451,58	30,106
451,79	25,677
451,99	28,514
452,19	27,461
452,40	34,958
452,60	21,211
452,80	29,653
453,00	30,115
