Fichero De Datos De SpectraSuite
++++++++++++++++++++++++++++++++++++
Fecha: Wed Apr 22 08:33:38 CEST 2009
Usuario: evoflor
Presente Oscuro Del Espectro: Sí
La Referencia de Presente Del Espectro De: Sí
Muestreados de los componentes de Número de espectros: 1
Espectrómetros: USB4F02353
Tiempo de integración (usec): 500000 (USB4F02353)
Promedio de Espectros Hechos un: 5 (USB4F02353)
El Alisar Del Furgón: 0 (USB4F02353)
Párrafo de de Corregir del la del del de Eléctrica del obscuridad: Sí (USB4F02353)
Estrobo/Lámpara Permitido: No (USB4F02353)
Correct for Detector Non-linearity: No (USB4F02353)
Párrafo de de Corregir del la del del de Externa del luz: No (USB4F02353)
Procesado del espectro de Número de pixeles en: 3648
>>>>> Comienza Data<<<<< Espectral Procesado Del EL
177,79	908,958
178,00	908,958
178,22	908,958
178,44	-7535,648
178,66	476,722
178,88	16,219
179,09	3212,853
179,31	179,626
179,53	-6353,387
179,75	422,680
179,96	-124,570
180,18	383,534
180,40	-294,078
180,62	-122,682
180,83	195,799
181,05	-854,854
181,27	-917,003
181,49	123,677
181,70	-274,202
181,92	419,040
182,14	217,552
182,36	-1408,788
182,58	168,918
182,79	-799,407
183,01	-16113,112
183,23	315,753
183,45	-69,023
183,66	-36,730
183,88	836,623
184,10	926,051
184,32	790,208
184,53	-231,676
184,75	410,154
184,97	-212,906
185,18	944,558
185,40	283,530
185,62	-450,664
185,84	3519,092
186,05	3853,742
186,27	-6332,721
186,49	-882,529
186,71	258,357
186,92	413,109
187,14	1445,190
187,36	348,284
187,58	1128,760
187,79	-549,327
188,01	-1290,432
188,23	64,978
188,45	54,045
188,66	-49,972
188,88	249,585
189,10	-408,091
189,31	-91,244
189,53	-52,012
189,75	1121,639
189,97	204,510
190,18	-153,982
190,40	1471,725
190,62	299,894
190,83	361,267
191,05	-208,672
191,27	7922,320
191,49	545,806
191,70	712,635
191,92	461,786
192,14	508,771
192,35	-1531,053
192,57	-863,660
192,79	-2423,377
193,01	594,406
193,22	526,838
193,44	-680,847
193,66	261,425
193,87	1125,665
194,09	173,300
194,31	252,357
194,53	-442,416
194,74	512,462
194,96	400,886
195,18	620,155
195,39	-1117,642
195,61	-354,766
195,83	2578,489
196,04	247,336
196,26	182,207
196,48	2329,776
196,70	458,923
196,91	238,097
197,13	-51,290
197,35	190,596
197,56	-645,228
197,78	5144,919
198,00	384,073
198,21	194,002
198,43	899,969
198,65	190,398
198,86	102,635
199,08	584,325
199,30	181,462
199,51	1027,514
199,73	-1805,709
199,95	265,976
200,16	655,871
200,38	192,888
200,60	2030,877
200,81	-793,980
201,03	11319,617
201,25	672,055
201,46	-753,234
201,68	853,114
201,90	519,988
202,11	402,379
202,33	178,116
202,55	144,688
202,76	730,704
202,98	474,613
203,20	299,038
203,41	-976,980
203,63	501,138
203,85	91,360
204,06	-886,926
204,28	187,726
204,50	-395,628
204,71	454,304
204,93	118,861
205,15	257,177
205,36	-226,822
205,58	931,107
205,80	-2038,830
206,01	-2340,117
206,23	357,764
206,45	399,715
206,66	424,438
206,88	-771,322
207,10	1423,772
207,31	-42727,152
207,53	409,903
207,75	-151,612
207,96	409,050
208,18	240,067
208,39	195,025
208,61	803,350
208,83	9076,211
209,04	347,653
209,26	482,760
209,48	69,522
209,69	-108,134
209,91	1044,698
210,13	10,325
210,34	54,690
210,56	361,163
210,77	1659,496
210,99	347,737
211,21	-231,911
211,42	187,001
211,64	572,615
211,86	439,656
212,07	201,132
212,29	651,449
212,50	1350,857
212,72	196,300
212,94	496,961
213,15	226,780
213,37	684,709
213,58	133,520
213,80	363,360
214,02	2453,997
214,23	356,305
214,45	283,671
214,67	63,536
214,88	-71,908
215,10	1457,548
215,31	-301,615
215,53	63,465
215,75	387,906
215,96	599,326
216,18	163,626
216,39	346,675
216,61	451,740
216,83	940,370
217,04	402,664
217,26	50,827
217,47	748,813
217,69	404,195
217,91	79,785
218,12	943,211
218,34	75,035
218,55	224,922
218,77	-1,087
218,99	139,646
219,20	173,022
219,42	379,762
219,63	74,350
219,85	297,159
220,06	-76,583
220,28	150,086
220,50	41,078
220,71	119,910
220,93	495,096
221,14	391,318
221,36	57,713
221,58	101,981
221,79	84,917
222,01	163,439
222,22	164,194
222,44	47,603
222,65	206,407
222,87	-47,908
223,09	92,601
223,30	45,752
223,52	364,615
223,73	69,471
223,95	126,977
224,16	38,643
224,38	107,714
224,60	78,944
224,81	79,257
225,03	117,429
225,24	111,274
225,46	-16,114
225,67	30,318
225,89	51,199
226,10	87,758
226,32	116,393
226,54	1,285
226,75	3,994
226,97	107,408
227,18	91,111
227,40	80,562
227,61	18,097
227,83	45,173
228,04	121,132
228,26	65,150
228,47	44,225
228,69	106,749
228,91	39,667
229,12	112,361
229,34	25,754
229,55	73,542
229,77	28,211
229,98	13,619
230,20	46,694
230,41	-22,984
230,63	73,558
230,84	33,599
231,06	59,942
231,27	3,738
231,49	43,201
231,71	23,467
231,92	16,162
232,14	-25,135
232,35	32,711
232,57	-1,239
232,78	33,071
233,00	20,162
233,21	17,024
233,43	22,868
233,64	1,553
233,86	23,185
234,07	40,858
234,29	5,989
234,50	10,782
234,72	34,429
234,93	9,029
235,15	9,231
235,36	8,204
235,58	45,844
235,79	32,292
236,01	17,767
236,22	25,948
236,44	35,411
236,65	18,721
236,87	16,318
237,08	9,785
237,30	-6,175
237,51	21,219
237,73	17,782
237,94	5,875
238,16	19,084
238,37	11,011
238,59	3,783
238,80	13,944
239,02	5,236
239,23	25,438
239,45	11,418
239,66	22,199
239,88	22,800
240,09	12,191
240,31	5,163
240,52	4,437
240,74	11,159
240,95	10,945
241,17	11,947
241,38	8,135
241,60	-2,795
241,81	14,563
242,03	-3,524
242,24	13,165
242,46	14,516
242,67	-1,270
242,89	15,578
243,10	9,140
243,32	16,910
243,53	16,294
243,75	3,778
243,96	9,040
244,18	7,906
244,39	15,862
244,60	-2,123
244,82	4,402
245,03	12,470
245,25	5,873
245,46	22,833
245,68	5,622
245,89	25,872
246,11	18,209
246,32	7,812
246,54	8,512
246,75	2,404
246,97	18,433
247,18	19,817
247,39	4,999
247,61	13,248
247,82	12,454
248,04	-1,116
248,25	3,417
248,47	8,276
248,68	8,212
248,90	6,170
249,11	8,754
249,33	10,131
249,54	9,554
249,75	8,901
249,97	1,036
250,18	15,368
250,40	11,361
250,61	7,722
250,83	4,482
251,04	4,938
251,25	15,219
251,47	8,931
251,68	2,476
251,90	6,598
252,11	5,189
252,33	6,914
252,54	5,688
252,76	2,703
252,97	-0,997
253,18	6,062
253,40	8,434
253,61	4,143
253,83	4,038
254,04	8,812
254,25	-0,844
254,47	1,825
254,68	7,775
254,90	4,301
255,11	3,407
255,33	6,342
255,54	0,525
255,75	4,895
255,97	7,862
256,18	3,256
256,40	6,444
256,61	6,866
256,82	5,691
257,04	10,701
257,25	3,986
257,47	7,304
257,68	9,707
257,89	5,241
258,11	2,861
258,32	10,833
258,54	2,519
258,75	13,805
258,96	7,784
259,18	6,481
259,39	2,613
259,61	10,917
259,82	2,088
260,03	2,737
260,25	5,987
260,46	6,738
260,68	3,276
260,89	2,326
261,10	8,166
261,32	7,045
261,53	-1,749
261,75	6,896
261,96	5,856
262,17	16,395
262,39	10,793
262,60	0,012
262,81	7,069
263,03	7,403
263,24	6,785
263,46	2,614
263,67	7,552
263,88	6,184
264,10	3,166
264,31	4,910
264,52	5,728
264,74	5,089
264,95	3,628
265,17	8,266
265,38	7,042
265,59	8,805
265,81	7,545
266,02	1,784
266,23	1,322
266,45	10,732
266,66	9,102
266,87	6,089
267,09	5,466
267,30	8,494
267,52	12,256
267,73	7,359
267,94	2,567
268,16	6,922
268,37	2,464
268,58	8,060
268,80	-0,775
269,01	7,386
269,22	8,708
269,44	9,307
269,65	4,880
269,86	3,182
270,08	7,203
270,29	3,274
270,50	4,826
270,72	7,805
270,93	2,113
271,14	1,449
271,36	1,974
271,57	5,859
271,78	2,534
272,00	3,577
272,21	6,741
272,42	2,652
272,64	10,201
272,85	1,284
273,06	3,960
273,28	4,653
273,49	2,792
273,70	4,461
273,92	4,717
274,13	2,012
274,34	-3,439
274,56	7,962
274,77	5,990
274,98	11,726
275,20	6,227
275,41	7,392
275,62	1,405
275,84	3,894
276,05	12,205
276,26	3,576
276,47	3,448
276,69	8,998
276,90	9,364
277,11	3,959
277,33	1,068
277,54	10,522
277,75	5,637
277,97	0,458
278,18	-0,403
278,39	8,911
278,61	2,629
278,82	8,667
279,03	6,158
279,24	1,608
279,46	5,690
279,67	10,102
279,88	5,789
280,10	12,831
280,31	3,532
280,52	3,753
280,73	1,985
280,95	5,825
281,16	4,209
281,37	4,008
281,59	6,309
281,80	7,243
282,01	3,056
282,22	1,168
282,44	3,700
282,65	10,561
282,86	7,534
283,08	-0,034
283,29	6,180
283,50	-0,729
283,71	5,704
283,93	4,814
284,14	0,249
284,35	5,895
284,56	4,726
284,78	-0,876
284,99	5,468
285,20	9,555
285,42	1,643
285,63	5,522
285,84	2,274
286,05	3,027
286,27	2,966
286,48	9,035
286,69	2,612
286,90	3,996
287,12	2,091
287,33	5,641
287,54	2,345
287,75	9,421
287,97	1,342
288,18	3,011
288,39	5,378
288,60	4,505
288,82	3,500
289,03	1,719
289,24	6,578
289,45	7,563
289,67	4,791
289,88	2,971
290,09	9,016
290,30	4,632
290,52	1,221
290,73	0,065
290,94	4,238
291,15	2,473
291,37	4,569
291,58	6,053
291,79	3,820
292,00	2,872
292,21	3,678
292,43	5,689
292,64	1,431
292,85	4,271
293,06	5,812
293,28	1,306
293,49	3,029
293,70	7,705
293,91	-0,570
294,12	4,450
294,34	3,486
294,55	5,502
294,76	7,226
294,97	6,680
295,19	3,267
295,40	5,422
295,61	4,630
295,82	5,262
296,03	4,905
296,25	5,561
296,46	0,927
296,67	2,204
296,88	4,124
297,09	2,633
297,31	2,414
297,52	5,625
297,73	2,111
297,94	2,283
298,15	6,659
298,37	3,371
298,58	4,211
298,79	4,635
299,00	-1,402
299,21	3,770
299,43	0,339
299,64	8,855
299,85	2,036
300,06	1,737
300,27	1,633
300,49	7,300
300,70	6,380
300,91	2,804
301,12	2,618
301,33	7,904
301,54	1,500
301,76	5,267
301,97	3,598
302,18	5,411
302,39	7,128
302,60	2,697
302,82	3,339
303,03	9,423
303,24	3,175
303,45	5,536
303,66	6,298
303,87	1,127
304,09	6,379
304,30	1,598
304,51	3,686
304,72	1,418
304,93	5,306
305,14	1,732
305,36	1,925
305,57	1,661
305,78	7,458
305,99	3,919
306,20	4,118
306,41	1,167
306,62	0,589
306,84	2,867
307,05	3,810
307,26	3,044
307,47	8,801
307,68	2,332
307,89	3,307
308,11	5,627
308,32	4,111
308,53	2,044
308,74	-0,179
308,95	1,195
309,16	7,790
309,37	3,580
309,59	0,195
309,80	2,832
310,01	3,610
310,22	4,936
310,43	5,261
310,64	5,600
310,85	5,158
311,06	1,222
311,28	4,685
311,49	5,268
311,70	8,595
311,91	2,104
312,12	0,941
312,33	2,284
312,54	4,565
312,75	7,472
312,97	3,111
313,18	7,274
313,39	1,378
313,60	2,346
313,81	3,969
314,02	4,755
314,23	7,036
314,44	2,996
314,65	2,022
314,87	1,263
315,08	2,288
315,29	0,310
315,50	5,031
315,71	8,276
315,92	7,454
316,13	-0,010
316,34	4,742
316,55	5,855
316,77	2,523
316,98	2,433
317,19	2,472
317,40	4,943
317,61	7,606
317,82	4,528
318,03	0,564
318,24	5,047
318,45	7,714
318,66	4,267
318,87	1,627
319,09	4,668
319,30	6,179
319,51	6,056
319,72	3,909
319,93	4,431
320,14	5,431
320,35	5,668
320,56	2,096
320,77	4,607
320,98	7,764
321,19	6,571
321,40	4,609
321,62	6,613
321,83	-0,511
322,04	4,793
322,25	7,332
322,46	8,401
322,67	5,674
322,88	5,814
323,09	3,697
323,30	6,397
323,51	8,676
323,72	4,127
323,93	1,062
324,14	2,534
324,35	-1,022
324,56	2,511
324,77	1,255
324,99	3,213
325,20	1,752
325,41	5,325
325,62	2,390
325,83	-0,093
326,04	1,000
326,25	2,366
326,46	1,878
326,67	2,808
326,88	3,622
327,09	1,413
327,30	4,767
327,51	2,824
327,72	2,770
327,93	2,803
328,14	1,484
328,35	5,722
328,56	2,909
328,77	5,511
328,98	4,112
329,19	2,834
329,40	4,515
329,61	3,168
329,82	0,079
330,04	5,164
330,25	3,778
330,46	4,452
330,67	1,730
330,88	5,846
331,09	3,369
331,30	4,378
331,51	3,330
331,72	4,171
331,93	3,920
332,14	1,095
332,35	6,158
332,56	2,499
332,77	9,089
332,98	2,433
333,19	3,498
333,40	4,312
333,61	2,650
333,82	5,943
334,03	2,776
334,24	10,751
334,45	5,025
334,66	5,360
334,87	2,424
335,08	1,233
335,29	1,505
335,50	5,822
335,71	0,509
335,92	6,224
336,13	4,997
336,34	0,739
336,55	4,893
336,76	5,849
336,97	3,603
337,18	2,404
337,39	4,480
337,60	4,132
337,81	3,311
338,02	4,484
338,23	3,273
338,44	4,373
338,65	-0,555
338,86	3,115
339,07	4,380
339,28	1,530
339,49	1,320
339,70	0,870
339,91	3,248
340,11	7,094
340,32	5,483
340,53	2,251
340,74	-1,130
340,95	1,144
341,16	2,836
341,37	4,815
341,58	5,016
341,79	1,693
342,00	2,554
342,21	-1,820
342,42	3,214
342,63	6,172
342,84	5,428
343,05	4,301
343,26	8,064
343,47	7,297
343,68	3,083
343,89	0,954
344,10	2,141
344,31	3,679
344,52	4,579
344,73	2,886
344,94	0,589
345,14	3,403
345,35	2,635
345,56	1,065
345,77	-0,252
345,98	2,332
346,19	5,161
346,40	6,395
346,61	0,966
346,82	3,946
347,03	6,957
347,24	1,258
347,45	2,484
347,66	7,623
347,87	1,710
348,08	7,533
348,28	3,766
348,49	2,247
348,70	7,109
348,91	4,706
349,12	1,630
349,33	-2,056
349,54	6,959
349,75	5,778
349,96	2,442
350,17	7,199
350,38	1,854
350,59	2,604
350,80	3,926
351,00	4,037
351,21	10,025
351,42	1,808
351,63	2,432
351,84	4,927
352,05	5,771
352,26	2,383
352,47	4,957
352,68	5,899
352,89	4,777
353,09	0,051
353,30	0,929
353,51	0,682
353,72	7,074
353,93	8,290
354,14	2,840
354,35	2,982
354,56	7,439
354,77	1,962
354,98	1,336
355,18	4,820
355,39	10,686
355,60	0,626
355,81	5,762
356,02	1,564
356,23	2,852
356,44	6,212
356,65	2,114
356,85	7,495
357,06	8,850
357,27	3,096
357,48	0,954
357,69	8,784
357,90	4,315
358,11	-1,388
358,32	1,707
358,52	6,313
358,73	3,745
358,94	2,033
359,15	5,649
359,36	5,804
359,57	4,356
359,78	8,553
359,98	5,590
360,19	-0,384
360,40	2,710
360,61	7,594
360,82	2,622
361,03	11,568
361,24	14,487
361,44	0,786
361,65	2,661
361,86	1,686
362,07	4,178
362,28	7,699
362,49	4,391
362,70	7,023
362,90	3,471
363,11	1,335
363,32	0,862
363,53	2,656
363,74	9,574
363,95	7,316
364,15	3,060
364,36	6,920
364,57	2,053
364,78	3,250
364,99	2,175
365,20	5,315
365,40	7,790
365,61	4,957
365,82	3,909
366,03	8,220
366,24	1,362
366,45	-1,049
366,65	-2,042
366,86	4,789
367,07	2,773
367,28	0,177
367,49	1,359
367,69	6,169
367,90	3,249
368,11	3,692
368,32	4,005
368,53	8,188
368,73	3,732
368,94	5,941
369,15	5,004
369,36	7,303
369,57	5,102
369,78	5,208
369,98	4,709
370,19	8,469
370,40	2,425
370,61	3,125
370,82	5,459
371,02	8,082
371,23	3,032
371,44	2,977
371,65	2,567
371,85	10,366
372,06	0,031
372,27	5,430
372,48	4,235
372,69	8,173
372,89	3,290
373,10	3,469
373,31	4,591
373,52	4,232
373,73	6,880
373,93	5,162
374,14	4,139
374,35	5,281
374,56	3,489
374,76	5,502
374,97	2,612
375,18	7,529
375,39	4,646
375,60	7,804
375,80	5,221
376,01	2,980
376,22	6,985
376,43	5,319
376,63	5,601
376,84	6,648
377,05	5,217
377,26	3,390
377,46	3,903
377,67	3,630
377,88	0,705
378,09	3,871
378,29	3,866
378,50	3,995
378,71	2,566
378,92	2,015
379,12	1,482
379,33	0,506
379,54	4,894
379,75	7,575
379,95	4,877
380,16	4,693
380,37	3,555
380,58	1,731
380,78	4,024
380,99	1,252
381,20	3,551
381,41	6,797
381,61	2,687
381,82	5,675
382,03	6,744
382,24	6,663
382,44	2,670
382,65	3,567
382,86	7,250
383,06	9,279
383,27	4,227
383,48	4,336
383,69	5,709
383,89	1,861
384,10	1,627
384,31	3,495
384,51	6,976
384,72	5,234
384,93	4,593
385,14	-0,396
385,34	2,112
385,55	3,327
385,76	-0,110
385,96	8,605
386,17	5,483
386,38	2,550
386,59	3,950
386,79	7,376
387,00	10,693
387,21	8,386
387,41	5,193
387,62	4,146
387,83	8,303
388,03	5,915
388,24	3,515
388,45	4,218
388,66	6,490
388,86	3,515
389,07	1,911
389,28	10,959
389,48	4,760
389,69	2,265
389,90	-0,157
390,10	2,417
390,31	10,626
390,52	2,659
390,72	4,898
390,93	7,314
391,14	4,176
391,34	5,433
391,55	4,645
391,76	6,785
391,96	12,809
392,17	3,169
392,38	0,937
392,58	2,642
392,79	2,073
393,00	0,881
393,20	3,076
393,41	5,064
393,62	7,693
393,82	1,882
394,03	5,933
394,24	3,412
394,44	6,124
394,65	7,405
394,86	3,762
395,06	8,842
395,27	6,545
395,48	3,687
395,68	3,301
395,89	4,308
396,10	7,985
396,30	1,120
396,51	2,262
396,72	6,012
396,92	2,083
397,13	6,270
397,34	0,788
397,54	5,416
397,75	3,061
397,95	2,152
398,16	3,782
398,37	5,760
398,57	-2,344
398,78	1,029
398,99	4,101
399,19	6,693
399,40	10,652
399,60	2,931
399,81	7,108
400,02	8,943
400,22	5,273
400,43	7,400
400,64	1,969
400,84	0,129
401,05	3,559
401,25	5,171
401,46	1,284
401,67	7,273
401,87	3,809
402,08	-0,297
402,29	3,884
402,49	9,812
402,70	3,903
402,90	1,152
403,11	5,491
403,32	-0,680
403,52	2,380
403,73	2,514
403,93	7,293
404,14	10,055
404,35	1,963
404,55	-0,877
404,76	3,766
404,96	4,158
405,17	8,042
405,38	8,598
405,58	1,472
405,79	8,358
405,99	7,773
406,20	4,195
406,40	3,750
406,61	2,953
406,82	2,622
407,02	4,684
407,23	-1,094
407,43	4,294
407,64	-0,652
407,85	4,873
408,05	-0,952
408,26	12,753
408,46	6,674
408,67	0,666
408,87	4,303
409,08	2,929
409,29	8,889
409,49	7,459
409,70	4,154
409,90	3,311
410,11	4,993
410,31	7,280
410,52	5,817
410,72	2,280
410,93	6,194
411,14	1,946
411,34	-1,081
411,55	0,598
411,75	5,353
411,96	5,942
412,16	3,805
412,37	0,313
412,57	3,145
412,78	8,636
412,99	0,920
413,19	6,365
413,40	2,501
413,60	4,024
413,81	3,802
414,01	1,922
414,22	5,302
414,42	2,391
414,63	0,698
414,83	2,723
415,04	10,063
415,24	5,256
415,45	3,065
415,65	3,728
415,86	7,748
416,07	2,024
416,27	5,933
416,48	7,491
416,68	11,890
416,89	-0,838
417,09	5,433
417,30	9,407
417,50	-2,757
417,71	5,308
417,91	5,186
418,12	5,751
418,32	4,992
418,53	-2,262
418,73	5,788
418,94	2,125
419,14	7,376
419,35	-1,066
419,55	0,983
419,76	6,592
419,96	4,039
420,17	0,837
420,37	1,831
420,58	5,355
420,78	4,936
420,99	0,863
421,19	5,229
421,40	7,838
421,60	6,267
421,81	-1,496
422,01	3,070
422,22	6,251
422,42	5,403
422,63	7,588
422,83	4,306
423,04	11,395
423,24	12,946
423,45	4,446
423,65	1,098
423,86	8,998
424,06	5,387
424,27	-1,413
424,47	5,228
424,67	0,816
424,88	4,907
425,08	2,174
425,29	8,321
425,49	-2,434
425,70	1,194
425,90	2,187
426,11	2,830
426,31	7,041
426,52	6,602
426,72	1,696
426,93	2,010
427,13	5,568
427,33	0,161
427,54	4,512
427,74	3,577
427,95	8,226
428,15	0,460
428,36	3,900
428,56	-0,466
428,77	2,938
428,97	4,325
429,18	3,629
429,38	0,664
429,58	2,364
429,79	6,023
429,99	-0,574
430,20	2,069
430,40	6,510
430,61	0,629
430,81	3,004
431,01	4,868
431,22	10,160
431,42	4,303
431,63	-2,007
431,83	3,654
432,04	8,664
432,24	5,685
432,44	5,152
432,65	1,990
432,85	2,071
433,06	7,121
433,26	2,078
433,47	2,068
433,67	0,417
433,87	4,348
434,08	2,470
434,28	-1,417
434,49	0,669
434,69	10,283
434,89	3,790
435,10	2,937
435,30	4,187
435,51	2,133
435,71	0,060
435,91	0,317
436,12	0,189
436,32	0,345
436,53	1,778
436,73	0,167
436,93	2,763
437,14	4,297
437,34	4,410
437,55	-0,815
437,75	7,769
437,95	8,539
438,16	-0,121
438,36	2,130
438,57	6,423
438,77	-0,301
438,97	7,436
439,18	3,366
439,38	3,659
439,58	0,195
439,79	2,100
439,99	-2,043
440,20	8,283
440,40	5,931
440,60	4,272
440,81	-1,519
441,01	4,463
441,21	2,518
441,42	2,206
441,62	3,500
441,83	1,418
442,03	2,099
442,23	4,004
442,44	3,568
442,64	3,736
442,84	-0,691
443,05	4,637
443,25	-0,502
443,45	4,436
443,66	1,465
443,86	1,462
444,06	4,399
444,27	0,967
444,47	7,206
444,67	5,718
444,88	3,447
445,08	4,007
445,28	-0,472
445,49	3,467
445,69	4,419
445,90	6,383
446,10	7,019
446,30	3,176
446,51	3,713
446,71	4,660
446,91	5,285
447,12	11,747
447,32	3,397
447,52	3,591
447,72	7,874
447,93	2,198
448,13	-1,758
448,33	6,035
448,54	7,756
448,74	0,192
448,94	2,571
449,15	7,743
449,35	1,515
449,55	6,448
449,76	5,274
449,96	2,335
450,16	5,501
450,37	3,389
450,57	2,968
450,77	0,835
450,98	2,898
451,18	5,782
451,38	6,028
451,58	7,013
451,79	1,737
451,99	3,281
452,19	4,234
452,40	11,590
452,60	-0,124
452,80	8,362
453,00	5,577
453,21	0,067
453,41	5,163
453,61	0,210
453,82	6,508
454,02	3,927
454,22	16,625
454,42	4,543
454,63	0,595
454,83	-1,672
455,03	6,840
455,24	2,100
455,44	5,265
455,64	2,015
455,84	1,104
456,05	2,168
