Fichero De Datos De SpectraSuite
++++++++++++++++++++++++++++++++++++
Fecha: Wed Apr 22 08:51:03 CEST 2009
Usuario: evoflor
Presente Oscuro Del Espectro: Sí
La Referencia de Presente Del Espectro De: Sí
Muestreados de los componentes de Número de espectros: 1
Espectrómetros: USB4F02353
Tiempo de integración (usec): 500000 (USB4F02353)
Promedio de Espectros Hechos un: 5 (USB4F02353)
El Alisar Del Furgón: 0 (USB4F02353)
Párrafo de de Corregir del la del del de Eléctrica del obscuridad: Sí (USB4F02353)
Estrobo/Lámpara Permitido: No (USB4F02353)
Correct for Detector Non-linearity: No (USB4F02353)
Párrafo de de Corregir del la del del de Externa del luz: No (USB4F02353)
Procesado del espectro de Número de pixeles en: 3648
>>>>> Comienza Data<<<<< Espectral Procesado Del EL
177,79	825,400
178,00	825,400
178,22	825,400
178,44	-7764,753
178,66	530,086
178,88	97,832
179,09	273,008
179,31	137,441
179,53	-5929,047
179,75	426,078
179,96	-349,865
180,18	334,272
180,40	-371,510
180,62	-247,167
180,83	453,190
181,05	-1065,245
181,27	-546,874
181,49	63,583
181,70	-296,548
181,92	404,886
182,14	207,229
182,36	-394,189
182,58	219,319
182,79	-740,624
183,01	-14931,898
183,23	438,403
183,45	-80,583
183,66	221,162
183,88	693,282
184,10	761,128
184,32	1107,297
184,53	-218,405
184,75	572,294
184,97	-101,564
185,18	872,472
185,40	271,866
185,62	-750,454
185,84	838,718
186,05	2595,311
186,27	-7623,651
186,49	-761,819
186,71	253,461
186,92	334,910
187,14	1381,635
187,36	347,049
187,58	1169,633
187,79	-782,074
188,01	-1470,264
188,23	125,957
188,45	199,274
188,66	-22,579
188,88	238,509
189,10	-394,536
189,31	-178,309
189,53	-219,775
189,75	1215,162
189,97	168,822
190,18	1395,643
190,40	1336,886
190,62	425,987
190,83	497,709
191,05	-264,229
191,27	10309,666
191,49	515,160
191,70	878,785
191,92	537,760
192,14	372,344
192,35	-1485,756
192,57	-933,586
192,79	-2194,353
193,01	511,232
193,22	-406,160
193,44	-615,105
193,66	480,921
193,87	930,009
194,09	154,095
194,31	165,852
194,53	-369,524
194,74	349,637
194,96	-163,179
195,18	1235,949
195,39	-1199,301
195,61	-366,262
195,83	2155,344
196,04	458,475
196,26	196,776
196,48	1767,253
196,70	523,525
196,91	227,905
197,13	-102,664
197,35	328,924
197,56	-461,385
197,78	5696,043
198,00	207,826
198,21	365,232
198,43	893,322
198,65	382,054
198,86	179,389
199,08	853,283
199,30	155,808
199,51	935,206
199,73	-3337,964
199,95	276,011
200,16	807,345
200,38	176,417
200,60	3042,824
200,81	-541,506
201,03	5244,976
201,25	557,147
201,46	-619,490
201,68	506,131
201,90	699,403
202,11	569,643
202,33	200,529
202,55	150,514
202,76	577,177
202,98	902,127
203,20	331,528
203,41	-1113,025
203,63	627,072
203,85	164,222
204,06	-528,129
204,28	213,766
204,50	-213,798
204,71	388,690
204,93	44,547
205,15	85,290
205,36	-195,547
205,58	-730,756
205,80	-1972,543
206,01	-2814,481
206,23	277,468
206,45	350,453
206,66	355,424
206,88	-426,632
207,10	3240,873
207,31	-54941,722
207,53	116,828
207,75	-471,700
207,96	334,593
208,18	340,502
208,39	265,989
208,61	711,042
208,83	9550,269
209,04	226,116
209,26	448,957
209,48	75,937
209,69	-90,998
209,91	738,516
210,13	-0,691
210,34	67,582
210,56	348,830
210,77	2326,889
210,99	276,016
211,21	-138,169
211,42	173,678
211,64	673,596
211,86	391,586
212,07	211,795
212,29	769,934
212,50	1020,851
212,72	243,087
212,94	276,565
213,15	141,121
213,37	657,668
213,58	197,079
213,80	288,065
214,02	2145,363
214,23	274,656
214,45	307,379
214,67	88,618
214,88	-271,523
215,10	1086,427
215,31	-990,097
215,53	54,250
215,75	422,657
215,96	501,383
216,18	195,292
216,39	240,970
216,61	508,246
216,83	823,666
217,04	512,052
217,26	97,808
217,47	379,515
217,69	336,279
217,91	131,889
218,12	1199,794
218,34	85,900
218,55	195,888
218,77	-8,393
218,99	136,934
219,20	163,110
219,42	484,160
219,63	103,951
219,85	324,136
220,06	-78,477
220,28	133,642
220,50	85,830
220,71	117,351
220,93	524,780
221,14	440,914
221,36	100,461
221,58	122,244
221,79	74,017
222,01	226,057
222,22	155,195
222,44	59,082
222,65	230,513
222,87	16,561
223,09	98,836
223,30	112,165
223,52	149,149
223,73	75,770
223,95	39,736
224,16	31,541
224,38	119,329
224,60	54,676
224,81	100,367
225,03	69,615
225,24	117,728
225,46	8,290
225,67	21,954
225,89	39,202
226,10	139,369
226,32	62,150
226,54	-7,898
226,75	17,742
226,97	96,478
227,18	93,395
227,40	90,576
227,61	61,466
227,83	24,648
228,04	72,868
228,26	73,234
228,47	22,159
228,69	99,527
228,91	41,960
229,12	120,708
229,34	24,402
229,55	52,534
229,77	34,670
229,98	29,952
230,20	36,242
230,41	10,036
230,63	51,941
230,84	29,259
231,06	62,262
231,27	-8,131
231,49	43,443
231,71	26,181
231,92	11,282
232,14	-12,709
232,35	30,167
232,57	-5,078
232,78	15,017
233,00	21,035
233,21	21,523
233,43	23,841
233,64	-6,262
233,86	30,035
234,07	33,429
234,29	3,788
234,50	1,573
234,72	23,590
234,93	18,382
235,15	-4,558
235,36	18,549
235,58	44,079
235,79	25,896
236,01	10,860
236,22	18,777
236,44	34,897
236,65	21,033
236,87	12,920
237,08	7,074
237,30	-4,784
237,51	19,221
237,73	14,681
237,94	5,978
238,16	16,977
238,37	6,241
238,59	3,888
238,80	6,156
239,02	5,530
239,23	21,907
239,45	4,459
239,66	22,655
239,88	20,545
240,09	19,943
240,31	9,312
240,52	8,418
240,74	14,136
240,95	4,598
241,17	9,031
241,38	6,410
241,60	-0,724
241,81	20,033
242,03	2,446
242,24	12,886
242,46	13,302
242,67	2,530
242,89	15,167
243,10	10,511
243,32	15,358
243,53	14,702
243,75	4,418
243,96	8,747
244,18	8,818
244,39	14,966
244,60	0,263
244,82	5,855
245,03	12,617
245,25	12,553
245,46	24,912
245,68	1,286
245,89	25,462
246,11	19,820
246,32	6,498
246,54	8,689
246,75	5,319
246,97	15,777
247,18	14,051
247,39	3,331
247,61	9,966
247,82	13,975
248,04	2,698
248,25	2,395
248,47	5,552
248,68	7,908
248,90	0,810
249,11	9,150
249,33	15,470
249,54	7,777
249,75	6,696
249,97	4,996
250,18	16,480
250,40	11,808
250,61	5,676
250,83	1,030
251,04	4,193
251,25	13,940
251,47	11,111
251,68	2,795
251,90	6,896
252,11	1,753
252,33	5,916
252,54	2,273
252,76	-1,178
252,97	-1,393
253,18	4,456
253,40	8,780
253,61	4,756
253,83	8,107
254,04	5,618
254,25	1,858
254,47	-2,614
254,68	6,189
254,90	3,235
255,11	2,923
255,33	8,031
255,54	1,923
255,75	1,821
255,97	5,174
256,18	2,526
256,40	4,786
256,61	6,567
256,82	3,258
257,04	8,194
257,25	1,012
257,47	8,351
257,68	10,342
257,89	5,940
258,11	2,090
258,32	10,156
258,54	3,800
258,75	14,468
258,96	6,394
259,18	8,717
259,39	3,140
259,61	7,392
259,82	3,015
260,03	0,804
260,25	3,501
260,46	4,128
260,68	3,372
260,89	3,482
261,10	5,094
261,32	3,973
261,53	-1,456
261,75	6,694
261,96	2,079
262,17	15,665
262,39	8,110
262,60	-0,196
262,81	4,330
263,03	12,843
263,24	6,066
263,46	1,564
263,67	5,140
263,88	5,013
264,10	2,880
264,31	4,204
264,52	1,994
264,74	9,470
264,95	3,158
265,17	8,097
265,38	6,919
265,59	8,100
265,81	8,019
266,02	2,485
266,23	0,318
266,45	9,297
266,66	7,259
266,87	3,907
267,09	1,727
267,30	10,177
267,52	11,579
267,73	6,876
267,94	0,327
268,16	6,856
268,37	1,991
268,58	7,470
268,80	-1,984
269,01	8,558
269,22	8,487
269,44	7,662
269,65	6,228
269,86	1,281
270,08	7,189
270,29	2,716
270,50	4,242
270,72	6,132
270,93	1,399
271,14	3,918
271,36	2,993
271,57	7,396
271,78	5,353
272,00	1,070
272,21	7,391
272,42	3,799
272,64	8,908
272,85	1,499
273,06	1,894
273,28	6,720
273,49	0,227
273,70	8,087
273,92	3,242
274,13	4,000
274,34	-4,015
274,56	7,827
274,77	4,033
274,98	10,328
275,20	7,242
275,41	5,435
275,62	-0,104
275,84	4,591
276,05	13,268
276,26	2,098
276,47	4,589
276,69	10,536
276,90	7,688
277,11	2,646
277,33	0,489
277,54	10,652
277,75	3,529
277,97	0,941
278,18	2,285
278,39	8,154
278,61	3,721
278,82	9,762
279,03	7,174
279,24	0,999
279,46	5,956
279,67	9,442
279,88	4,753
280,10	7,537
280,31	3,783
280,52	1,193
280,73	3,172
280,95	7,953
281,16	4,883
281,37	5,242
281,59	3,503
281,80	8,243
282,01	2,013
282,22	1,497
282,44	5,405
282,65	12,119
282,86	3,307
283,08	0,149
283,29	2,578
283,50	0,758
283,71	7,849
283,93	5,231
284,14	1,612
284,35	6,181
284,56	4,424
284,78	-0,276
284,99	4,349
285,20	8,808
285,42	2,437
285,63	2,060
285,84	2,074
286,05	2,287
286,27	2,278
286,48	6,864
286,69	5,022
286,90	3,378
287,12	2,340
287,33	1,488
287,54	1,428
287,75	9,793
287,97	2,963
288,18	2,125
288,39	4,365
288,60	4,942
288,82	2,391
289,03	1,880
289,24	4,828
289,45	5,496
289,67	4,535
289,88	2,263
290,09	6,930
290,30	4,026
290,52	1,027
290,73	-0,533
290,94	4,005
291,15	2,896
291,37	5,159
291,58	3,973
291,79	2,213
292,00	2,550
292,21	4,138
292,43	6,035
292,64	-0,938
292,85	4,298
293,06	6,533
293,28	1,783
293,49	2,608
293,70	7,329
293,91	1,154
294,12	3,258
294,34	4,143
294,55	5,738
294,76	6,356
294,97	4,203
295,19	3,502
295,40	3,237
295,61	4,550
295,82	4,977
296,03	3,576
296,25	4,954
296,46	1,264
296,67	1,274
296,88	4,219
297,09	2,503
297,31	0,262
297,52	4,843
297,73	2,173
297,94	2,771
298,15	6,547
298,37	2,534
298,58	1,154
298,79	3,248
299,00	-0,280
299,21	2,599
299,43	0,660
299,64	7,956
299,85	2,720
300,06	2,185
300,27	1,848
300,49	7,645
300,70	7,484
300,91	1,606
301,12	2,087
301,33	7,091
301,54	2,745
301,76	4,246
301,97	2,330
302,18	5,759
302,39	6,204
302,60	2,757
302,82	2,893
303,03	10,318
303,24	2,776
303,45	5,395
303,66	4,159
303,87	-0,494
304,09	5,494
304,30	0,049
304,51	3,643
304,72	0,166
304,93	5,380
305,14	1,706
305,36	3,033
305,57	1,500
305,78	6,421
305,99	3,074
306,20	5,917
306,41	1,261
306,62	0,995
306,84	3,750
307,05	3,734
307,26	1,378
307,47	9,200
307,68	2,408
307,89	4,115
308,11	5,140
308,32	4,324
308,53	3,204
308,74	3,467
308,95	2,201
309,16	5,428
309,37	4,751
309,59	0,339
309,80	3,182
310,01	4,477
310,22	4,728
310,43	5,755
310,64	4,684
310,85	5,540
311,06	2,343
311,28	5,043
311,49	3,410
311,70	7,806
311,91	2,538
312,12	-0,647
312,33	2,192
312,54	4,756
312,75	7,644
312,97	2,129
313,18	4,425
313,39	1,302
313,60	2,986
313,81	3,079
314,02	3,387
314,23	5,980
314,44	2,745
314,65	1,769
314,87	1,684
315,08	2,690
315,29	1,345
315,50	5,298
315,71	8,448
315,92	6,523
316,13	0,313
316,34	2,255
316,55	6,648
316,77	-0,505
316,98	1,559
317,19	2,896
317,40	6,676
317,61	7,339
317,82	5,571
318,03	0,622
318,24	4,132
318,45	6,902
318,66	3,688
318,87	1,686
319,09	3,856
319,30	6,461
319,51	6,566
319,72	4,191
319,93	4,020
320,14	4,865
320,35	7,505
320,56	0,653
320,77	4,849
320,98	7,069
321,19	7,455
321,40	3,539
321,62	5,561
321,83	-0,947
322,04	5,346
322,25	5,169
322,46	8,652
322,67	6,195
322,88	6,319
323,09	4,323
323,30	8,349
323,51	9,646
323,72	3,512
323,93	1,246
324,14	2,850
324,35	-2,026
324,56	1,825
324,77	3,221
324,99	2,827
325,20	2,692
325,41	2,865
325,62	3,623
325,83	-1,140
326,04	2,765
326,25	2,556
326,46	1,060
326,67	1,954
326,88	3,548
327,09	2,533
327,30	3,668
327,51	3,899
327,72	2,594
327,93	2,983
328,14	2,796
328,35	5,366
328,56	2,295
328,77	6,387
328,98	6,391
329,19	4,210
329,40	4,200
329,61	0,229
329,82	1,784
330,04	4,349
330,25	3,455
330,46	3,815
330,67	4,124
330,88	5,531
331,09	0,784
331,30	4,169
331,51	4,433
331,72	4,305
331,93	5,505
332,14	0,219
332,35	5,127
332,56	2,932
332,77	7,516
332,98	2,515
333,19	4,356
333,40	4,840
333,61	1,827
333,82	4,296
334,03	4,364
334,24	9,358
334,45	3,669
334,66	5,789
334,87	2,171
335,08	2,918
335,29	1,981
335,50	2,511
335,71	-0,540
335,92	5,762
336,13	4,576
336,34	0,935
336,55	2,999
336,76	6,291
336,97	4,185
337,18	2,595
337,39	4,156
337,60	5,388
337,81	3,376
338,02	4,994
338,23	3,893
338,44	3,907
338,65	0,223
338,86	5,109
339,07	3,993
339,28	1,407
339,49	2,049
339,70	1,875
339,91	3,314
340,11	9,260
340,32	4,838
340,53	0,827
340,74	-0,041
340,95	0,925
341,16	4,057
341,37	3,589
341,58	2,454
341,79	3,909
342,00	1,650
342,21	-1,597
342,42	3,656
342,63	5,355
342,84	4,489
343,05	3,642
343,26	8,035
343,47	5,575
343,68	1,545
343,89	2,237
344,10	2,645
344,31	2,426
344,52	4,450
344,73	2,065
344,94	-0,389
345,14	4,380
345,35	2,164
345,56	-0,918
345,77	0,480
345,98	1,638
346,19	4,818
346,40	6,444
346,61	0,118
346,82	4,618
347,03	4,320
347,24	1,390
347,45	1,582
347,66	6,414
347,87	2,071
348,08	7,581
348,28	3,756
348,49	2,196
348,70	5,087
348,91	3,390
349,12	4,178
349,33	-3,510
349,54	6,092
349,75	6,236
349,96	3,161
350,17	6,333
350,38	2,391
350,59	3,740
350,80	3,747
351,00	0,627
351,21	9,297
351,42	0,818
351,63	1,826
351,84	4,752
352,05	6,618
352,26	2,271
352,47	6,240
352,68	7,280
352,89	2,642
353,09	2,765
353,30	1,062
353,51	1,301
353,72	8,642
353,93	8,650
354,14	3,684
354,35	3,926
354,56	7,039
354,77	2,724
354,98	1,097
355,18	4,210
355,39	9,779
355,60	0,636
355,81	5,607
356,02	1,973
356,23	2,135
356,44	3,854
356,65	1,790
356,85	6,850
357,06	8,219
357,27	2,463
357,48	0,814
357,69	7,836
357,90	5,590
358,11	-2,819
358,32	1,526
358,52	6,033
358,73	3,017
358,94	1,160
359,15	2,733
359,36	6,985
359,57	2,918
359,78	7,835
359,98	3,740
360,19	-1,641
360,40	2,633
360,61	6,428
360,82	0,792
361,03	12,260
361,24	14,454
361,44	1,153
361,65	3,441
361,86	1,478
362,07	3,792
362,28	9,132
362,49	5,418
362,70	5,041
362,90	4,283
363,11	2,503
363,32	0,382
363,53	2,412
363,74	8,540
363,95	10,099
364,15	2,641
364,36	6,802
364,57	2,589
364,78	1,387
364,99	2,313
365,20	2,938
365,40	8,370
365,61	3,725
365,82	1,839
366,03	8,271
366,24	4,670
366,45	-2,186
366,65	0,505
366,86	3,315
367,07	3,554
367,28	-0,526
367,49	2,262
367,69	6,408
367,90	2,909
368,11	5,456
368,32	4,192
368,53	8,976
368,73	3,242
368,94	2,952
369,15	6,444
369,36	5,652
369,57	5,394
369,78	3,542
369,98	3,593
370,19	6,638
370,40	0,906
370,61	4,412
370,82	4,614
371,02	8,840
371,23	5,535
371,44	3,009
371,65	4,276
371,85	8,600
372,06	0,624
372,27	4,981
372,48	1,876
372,69	7,698
372,89	4,785
373,10	4,737
373,31	4,271
373,52	5,281
373,73	7,568
373,93	5,461
374,14	3,556
374,35	3,445
374,56	4,064
374,76	3,918
374,97	3,957
375,18	8,267
375,39	3,081
375,60	5,362
375,80	3,081
376,01	0,485
376,22	5,825
376,43	4,056
376,63	4,011
376,84	7,856
377,05	5,184
377,26	3,356
377,46	3,201
377,67	4,466
377,88	0,939
378,09	4,824
378,29	5,198
378,50	3,251
378,71	5,154
378,92	4,634
379,12	3,508
379,33	3,290
379,54	4,280
379,75	8,033
379,95	5,377
380,16	4,703
380,37	5,537
380,58	3,350
380,78	6,517
380,99	-0,047
381,20	2,192
381,41	4,922
381,61	3,417
381,82	4,913
382,03	4,742
382,24	4,387
382,44	2,448
382,65	5,208
382,86	7,007
383,06	8,192
383,27	2,677
383,48	3,491
383,69	5,837
383,89	1,154
384,10	2,177
384,31	4,203
384,51	9,008
384,72	7,661
384,93	1,958
385,14	0,953
385,34	2,006
385,55	4,522
385,76	1,448
385,96	9,811
386,17	4,543
386,38	5,007
386,59	10,275
386,79	8,377
387,00	12,071
387,21	9,216
387,41	8,172
387,62	5,916
387,83	8,797
388,03	4,367
388,24	5,941
388,45	5,269
388,66	5,452
388,86	3,952
389,07	4,040
389,28	13,578
389,48	6,829
389,69	4,958
389,90	1,530
390,10	3,760
390,31	6,367
390,52	2,714
390,72	6,026
390,93	7,756
391,14	6,133
391,34	6,255
391,55	6,026
391,76	7,925
391,96	11,037
392,17	5,103
392,38	5,233
392,58	5,811
392,79	5,423
393,00	2,916
393,20	7,241
393,41	7,180
393,62	8,167
393,82	5,870
394,03	6,873
394,24	6,894
394,44	9,742
394,65	8,502
394,86	5,377
395,06	10,897
395,27	8,883
395,48	10,002
395,68	4,046
395,89	4,594
396,10	10,882
396,30	2,853
396,51	5,372
396,72	8,462
396,92	7,392
397,13	10,308
397,34	5,021
397,54	8,323
397,75	6,943
397,95	7,064
398,16	7,426
398,37	8,875
398,57	2,823
398,78	5,256
398,99	9,660
399,19	10,000
399,40	14,975
399,60	6,563
399,81	10,237
400,02	15,586
400,22	11,098
400,43	14,256
400,64	7,349
400,84	5,169
401,05	8,991
401,25	12,558
401,46	8,883
401,67	12,479
401,87	10,909
402,08	8,592
402,29	12,485
402,49	15,404
402,70	11,698
402,90	8,204
403,11	12,541
403,32	7,646
403,52	9,501
403,73	7,095
403,93	14,760
404,14	19,898
404,35	8,720
404,55	8,624
404,76	11,586
404,96	12,900
405,17	16,011
405,38	17,440
405,58	13,300
405,79	15,690
405,99	17,901
406,20	12,425
406,40	10,942
406,61	13,981
406,82	11,407
407,02	12,409
407,23	10,108
407,43	11,361
407,64	9,410
407,85	13,223
408,05	8,083
408,26	19,683
408,46	16,768
408,67	14,113
408,87	14,441
409,08	12,337
409,29	21,263
409,49	18,384
409,70	12,524
409,90	15,968
410,11	15,372
410,31	14,412
410,52	16,767
410,72	14,007
410,93	15,709
411,14	14,879
411,34	9,423
411,55	14,014
411,75	18,106
411,96	16,806
412,16	17,895
412,37	12,255
412,57	17,593
412,78	16,629
412,99	15,203
413,19	18,905
413,40	16,028
413,60	15,124
413,81	15,657
414,01	16,787
414,22	16,280
414,42	16,378
414,63	13,438
414,83	15,941
415,04	20,856
415,24	16,760
415,45	16,871
415,65	16,815
415,86	23,562
416,07	13,121
416,27	19,024
416,48	22,764
416,68	25,757
416,89	12,510
417,09	21,738
417,30	24,519
417,50	13,066
417,71	21,742
417,91	17,155
418,12	17,996
418,32	18,541
418,53	13,217
418,73	18,238
418,94	17,771
419,14	20,535
419,35	18,149
419,55	18,636
419,76	21,798
419,96	20,286
420,17	20,042
420,37	16,381
420,58	21,668
420,78	20,489
420,99	15,435
421,19	22,852
421,40	26,047
421,60	21,018
421,81	17,087
422,01	22,728
422,22	19,758
422,42	21,212
422,63	22,130
422,83	20,043
423,04	26,241
423,24	26,519
423,45	19,125
423,65	17,262
423,86	26,381
424,06	24,370
424,27	18,752
424,47	19,323
424,67	17,329
424,88	22,549
425,08	20,599
425,29	23,476
425,49	16,290
425,70	17,561
425,90	18,089
426,11	18,999
426,31	19,821
426,52	22,361
426,72	20,626
426,93	17,270
427,13	24,163
427,33	18,469
427,54	21,086
427,74	23,613
427,95	24,594
428,15	21,515
428,36	19,545
428,56	19,554
428,77	19,891
428,97	23,097
429,18	16,281
429,38	19,149
429,58	22,267
429,79	22,774
429,99	19,275
430,20	19,658
430,40	25,171
430,61	19,240
430,81	19,138
431,01	23,795
431,22	25,395
431,42	23,826
431,63	16,829
431,83	19,623
432,04	24,469
432,24	23,391
432,44	22,632
432,65	20,572
432,85	20,971
433,06	23,453
433,26	20,986
433,47	21,539
433,67	18,683
433,87	23,236
434,08	20,407
434,28	17,486
434,49	22,612
434,69	27,202
434,89	23,030
435,10	21,371
435,30	25,301
435,51	20,516
435,71	18,294
435,91	20,751
436,12	17,654
436,32	21,977
436,53	21,282
436,73	20,272
436,93	22,323
437,14	22,523
437,34	21,071
437,55	19,351
437,75	25,435
437,95	29,516
438,16	20,309
438,36	21,916
438,57	23,486
438,77	19,981
438,97	22,876
439,18	24,151
439,38	21,786
439,58	21,360
439,79	20,686
439,99	19,072
440,20	28,594
440,40	26,240
440,60	21,278
440,81	22,600
441,01	22,010
441,21	25,092
441,42	23,052
441,62	22,930
441,83	22,949
442,03	19,460
442,23	23,954
442,44	23,167
442,64	24,693
442,84	19,475
443,05	24,095
443,25	21,260
443,45	23,306
443,66	21,212
443,86	20,969
444,06	23,527
444,27	19,687
444,47	25,335
444,67	21,219
444,88	21,396
445,08	22,614
445,28	18,051
445,49	21,775
445,69	20,858
445,90	26,958
446,10	26,975
446,30	21,510
446,51	22,312
446,71	23,930
446,91	23,171
447,12	28,124
447,32	20,023
447,52	24,345
447,72	23,713
447,93	20,377
448,13	16,703
448,33	28,612
448,54	27,654
448,74	17,799
448,94	21,926
449,15	24,730
449,35	21,049
449,55	27,174
449,76	24,812
449,96	20,910
450,16	21,875
450,37	17,437
450,57	23,387
450,77	19,568
450,98	21,209
451,18	24,875
451,38	23,980
451,58	25,227
451,79	20,330
451,99	22,191
452,19	24,649
452,40	33,137
452,60	17,900
452,80	26,636
453,00	24,996
