Fichero De Datos De SpectraSuite
++++++++++++++++++++++++++++++++++++
Fecha: Wed Apr 22 09:00:31 CEST 2009
Usuario: evoflor
Presente Oscuro Del Espectro: Sí
La Referencia de Presente Del Espectro De: Sí
Muestreados de los componentes de Número de espectros: 1
Espectrómetros: USB4F02353
Tiempo de integración (usec): 500000 (USB4F02353)
Promedio de Espectros Hechos un: 5 (USB4F02353)
El Alisar Del Furgón: 0 (USB4F02353)
Párrafo de de Corregir del la del del de Eléctrica del obscuridad: Sí (USB4F02353)
Estrobo/Lámpara Permitido: No (USB4F02353)
Correct for Detector Non-linearity: No (USB4F02353)
Párrafo de de Corregir del la del del de Externa del luz: No (USB4F02353)
Procesado del espectro de Número de pixeles en: 3648
>>>>> Comienza Data<<<<< Espectral Procesado Del EL
177,79	884,389
178,00	884,389
178,22	884,389
178,44	-9097,330
178,66	522,845
178,88	275,872
179,09	529,820
179,31	154,263
179,53	-5981,745
179,75	494,542
179,96	-415,256
180,18	278,380
180,40	-379,141
180,62	-216,636
180,83	309,294
181,05	-1030,035
181,27	-663,123
181,49	128,827
181,70	-120,520
181,92	330,256
182,14	143,262
182,36	-1026,293
182,58	200,133
182,79	-846,412
183,01	-10583,366
183,23	344,278
183,45	-95,930
183,66	151,883
183,88	719,065
184,10	660,443
184,32	1074,890
184,53	-380,643
184,75	613,747
184,97	-127,434
185,18	924,800
185,40	208,376
185,62	-379,422
185,84	395,327
186,05	2928,855
186,27	-6374,397
186,49	-938,680
186,71	281,939
186,92	453,906
187,14	1743,589
187,36	318,497
187,58	1102,926
187,79	-970,420
188,01	-1453,042
188,23	140,630
188,45	74,706
188,66	-54,006
188,88	196,578
189,10	-343,003
189,31	-87,892
189,53	-138,860
189,75	1152,283
189,97	99,220
190,18	446,630
190,40	1665,555
190,62	191,789
190,83	516,407
191,05	-122,997
191,27	6625,835
191,49	550,531
191,70	766,214
191,92	497,784
192,14	421,517
192,35	-2215,895
192,57	-1021,772
192,79	-2494,692
193,01	588,099
193,22	-774,419
193,44	-454,313
193,66	380,416
193,87	1224,870
194,09	166,074
194,31	265,143
194,53	-437,743
194,74	317,641
194,96	48,450
195,18	629,255
195,39	-1277,115
195,61	-324,582
195,83	2578,693
196,04	265,495
196,26	157,732
196,48	2067,981
196,70	446,236
196,91	241,647
197,13	-63,882
197,35	291,410
197,56	-736,364
197,78	6890,690
198,00	592,477
198,21	235,564
198,43	815,352
198,65	257,360
198,86	124,845
199,08	528,738
199,30	297,219
199,51	1141,008
199,73	-2285,538
199,95	223,673
200,16	647,768
200,38	192,300
200,60	2505,896
200,81	-532,389
201,03	13129,665
201,25	698,793
201,46	-450,882
201,68	484,323
201,90	548,857
202,11	296,884
202,33	201,949
202,55	113,490
202,76	680,195
202,98	668,443
203,20	278,900
203,41	-1654,738
203,63	629,882
203,85	241,984
204,06	-798,905
204,28	240,763
204,50	-308,877
204,71	496,105
204,93	157,543
205,15	141,468
205,36	-164,370
205,58	2197,012
205,80	-2887,165
206,01	-5581,409
206,23	301,398
206,45	445,584
206,66	459,225
206,88	-408,634
207,10	3454,275
207,31	-52980,795
207,53	225,311
207,75	304,795
207,96	386,877
208,18	221,561
208,39	204,002
208,61	648,252
208,83	7855,867
209,04	414,131
209,26	450,722
209,48	87,919
209,69	-77,145
209,91	1053,795
210,13	79,448
210,34	92,602
210,56	340,775
210,77	1806,739
210,99	296,779
211,21	-457,261
211,42	223,161
211,64	652,897
211,86	328,651
212,07	152,250
212,29	613,870
212,50	1155,296
212,72	200,709
212,94	151,568
213,15	246,754
213,37	519,223
213,58	177,064
213,80	323,507
214,02	3407,995
214,23	245,946
214,45	244,012
214,67	54,630
214,88	-9,938
215,10	1150,459
215,31	-475,673
215,53	130,592
215,75	348,537
215,96	556,397
216,18	133,248
216,39	274,476
216,61	536,312
216,83	1058,577
217,04	323,774
217,26	85,740
217,47	900,000
217,69	340,265
217,91	91,462
218,12	1382,640
218,34	138,116
218,55	231,911
218,77	47,482
218,99	140,852
219,20	219,853
219,42	532,789
219,63	106,913
219,85	297,182
220,06	-83,626
220,28	149,194
220,50	75,810
220,71	70,247
220,93	483,899
221,14	388,043
221,36	111,419
221,58	137,109
221,79	129,227
222,01	273,479
222,22	170,450
222,44	73,245
222,65	256,308
222,87	96,079
223,09	74,404
223,30	132,427
223,52	125,619
223,73	79,110
223,95	121,199
224,16	48,643
224,38	54,408
224,60	80,044
224,81	-79,812
225,03	88,274
225,24	84,961
225,46	12,663
225,67	22,116
225,89	89,442
226,10	145,341
226,32	47,713
226,54	0,543
226,75	4,848
226,97	172,899
227,18	100,718
227,40	96,336
227,61	51,783
227,83	58,135
228,04	88,544
228,26	62,031
228,47	35,559
228,69	81,029
228,91	37,233
229,12	109,395
229,34	35,278
229,55	74,037
229,77	53,668
229,98	22,904
230,20	29,258
230,41	4,427
230,63	69,055
230,84	54,212
231,06	59,059
231,27	2,119
231,49	29,984
231,71	34,958
231,92	13,069
232,14	-9,137
232,35	36,631
232,57	11,206
232,78	15,091
233,00	37,974
233,21	20,942
233,43	19,090
233,64	12,558
233,86	27,480
234,07	36,552
234,29	5,634
234,50	15,174
234,72	35,683
234,93	9,031
235,15	2,456
235,36	11,121
235,58	42,036
235,79	27,096
236,01	14,146
236,22	28,175
236,44	36,248
236,65	14,262
236,87	21,556
237,08	7,536
237,30	-9,915
237,51	26,880
237,73	19,236
237,94	9,608
238,16	18,938
238,37	11,253
238,59	0,321
238,80	10,234
239,02	10,707
239,23	27,281
239,45	9,607
239,66	21,039
239,88	22,321
240,09	19,794
240,31	7,195
240,52	0,484
240,74	17,117
240,95	13,485
241,17	11,307
241,38	11,794
241,60	2,181
241,81	23,309
242,03	-1,124
242,24	10,083
242,46	16,180
242,67	-3,804
242,89	18,951
243,10	13,654
243,32	17,270
243,53	15,234
243,75	4,929
243,96	12,811
244,18	13,344
244,39	15,601
244,60	3,323
244,82	6,356
245,03	14,969
245,25	9,904
245,46	25,305
245,68	5,865
245,89	31,947
246,11	21,235
246,32	15,647
246,54	11,053
246,75	6,397
246,97	18,910
247,18	20,074
247,39	8,257
247,61	14,898
247,82	15,499
248,04	3,813
248,25	7,892
248,47	10,286
248,68	11,277
248,90	4,862
249,11	9,445
249,33	20,424
249,54	9,453
249,75	11,722
249,97	6,283
250,18	18,525
250,40	16,404
250,61	9,041
250,83	2,649
251,04	9,565
251,25	14,357
251,47	14,631
251,68	5,038
251,90	13,782
252,11	8,671
252,33	7,231
252,54	5,881
252,76	1,343
252,97	2,131
253,18	8,589
253,40	9,431
253,61	6,149
253,83	9,265
254,04	9,842
254,25	2,967
254,47	1,181
254,68	9,583
254,90	7,255
255,11	3,496
255,33	10,215
255,54	5,402
255,75	7,219
255,97	8,876
256,18	2,453
256,40	7,578
256,61	10,293
256,82	5,691
257,04	12,142
257,25	5,668
257,47	8,394
257,68	12,957
257,89	6,498
258,11	7,920
258,32	13,300
258,54	2,069
258,75	17,451
258,96	11,516
259,18	9,702
259,39	4,049
259,61	10,890
259,82	3,667
260,03	3,266
260,25	8,676
260,46	7,380
260,68	8,338
260,89	6,111
261,10	7,042
261,32	4,655
261,53	1,438
261,75	9,682
261,96	6,844
262,17	19,868
262,39	11,261
262,60	3,630
262,81	6,442
263,03	14,485
263,24	7,652
263,46	4,951
263,67	9,471
263,88	10,428
264,10	5,070
264,31	5,842
264,52	5,674
264,74	9,321
264,95	6,977
265,17	10,136
265,38	9,051
265,59	14,411
265,81	10,012
266,02	2,605
266,23	0,627
266,45	12,207
266,66	13,177
266,87	7,426
267,09	6,265
267,30	13,324
267,52	12,919
267,73	8,271
267,94	5,095
268,16	7,341
268,37	2,720
268,58	9,364
268,80	1,179
269,01	6,871
269,22	10,411
269,44	11,249
269,65	9,244
269,86	4,702
270,08	6,847
270,29	2,627
270,50	6,017
270,72	9,464
270,93	6,889
271,14	6,833
271,36	6,210
271,57	9,724
271,78	6,396
272,00	7,991
272,21	8,608
272,42	8,503
272,64	13,013
272,85	5,331
273,06	3,207
273,28	8,180
273,49	3,889
273,70	8,149
273,92	9,052
274,13	5,490
274,34	0,701
274,56	9,504
274,77	6,164
274,98	13,950
275,20	10,583
275,41	8,795
275,62	3,382
275,84	7,327
276,05	14,668
276,26	4,822
276,47	4,921
276,69	9,737
276,90	11,896
277,11	5,091
277,33	3,183
277,54	11,781
277,75	9,523
277,97	3,570
278,18	5,608
278,39	11,862
278,61	4,575
278,82	14,047
279,03	8,799
279,24	5,351
279,46	8,264
279,67	12,371
279,88	8,679
280,10	10,777
280,31	5,808
280,52	2,153
280,73	4,595
280,95	7,803
281,16	6,354
281,37	6,063
281,59	7,308
281,80	10,586
282,01	5,587
282,22	3,849
282,44	5,439
282,65	11,722
282,86	6,850
283,08	5,560
283,29	5,772
283,50	3,356
283,71	10,080
283,93	5,930
284,14	5,159
284,35	6,405
284,56	5,516
284,78	1,695
284,99	7,850
285,20	12,183
285,42	4,549
285,63	5,754
285,84	1,813
286,05	4,689
286,27	6,191
286,48	8,934
286,69	9,630
286,90	5,392
287,12	5,594
287,33	5,234
287,54	4,983
287,75	11,292
287,97	4,705
288,18	5,555
288,39	6,283
288,60	6,725
288,82	7,462
289,03	5,958
289,24	7,693
289,45	11,427
289,67	7,759
289,88	4,613
290,09	10,025
290,30	5,863
290,52	3,702
290,73	2,927
290,94	4,574
291,15	4,788
291,37	8,331
291,58	4,002
291,79	8,087
292,00	6,562
292,21	6,770
292,43	6,419
292,64	2,367
292,85	7,529
293,06	9,498
293,28	5,146
293,49	6,139
293,70	9,625
293,91	1,254
294,12	5,883
294,34	5,324
294,55	8,029
294,76	8,842
294,97	8,487
295,19	5,620
295,40	5,439
295,61	6,589
295,82	7,726
296,03	6,503
296,25	7,987
296,46	3,511
296,67	3,569
296,88	6,985
297,09	4,325
297,31	3,486
297,52	7,171
297,73	4,518
297,94	4,008
298,15	6,762
298,37	3,929
298,58	4,527
298,79	6,081
299,00	0,408
299,21	5,382
299,43	3,022
299,64	10,304
299,85	5,139
300,06	2,534
300,27	3,379
300,49	8,513
300,70	8,370
300,91	3,137
301,12	5,229
301,33	9,514
301,54	4,027
301,76	8,270
301,97	5,028
302,18	7,277
302,39	9,417
302,60	6,276
302,82	3,912
303,03	12,350
303,24	5,478
303,45	6,840
303,66	7,305
303,87	2,637
304,09	7,762
304,30	2,698
304,51	4,694
304,72	2,947
304,93	7,193
305,14	5,165
305,36	4,193
305,57	3,264
305,78	7,357
305,99	6,209
306,20	6,539
306,41	4,460
306,62	3,579
306,84	4,834
307,05	6,879
307,26	4,666
307,47	10,420
307,68	5,353
307,89	4,685
308,11	7,258
308,32	6,608
308,53	3,297
308,74	2,868
308,95	3,294
309,16	9,185
309,37	5,232
309,59	3,189
309,80	5,554
310,01	6,684
310,22	6,612
310,43	8,541
310,64	8,556
310,85	7,062
311,06	3,195
311,28	7,408
311,49	6,192
311,70	9,611
311,91	5,445
312,12	2,926
312,33	3,863
312,54	5,680
312,75	10,053
312,97	4,303
313,18	8,059
313,39	2,297
313,60	6,597
313,81	2,225
314,02	6,181
314,23	8,498
314,44	5,692
314,65	4,054
314,87	3,224
315,08	4,020
315,29	4,571
315,50	7,922
315,71	10,730
315,92	10,105
316,13	2,802
316,34	5,268
316,55	7,376
316,77	2,104
316,98	3,350
317,19	3,871
317,40	8,049
317,61	9,308
317,82	7,109
318,03	2,285
318,24	5,286
318,45	10,893
318,66	6,901
318,87	3,519
319,09	6,221
319,30	6,180
319,51	7,336
319,72	7,537
319,93	7,439
320,14	9,463
320,35	7,898
320,56	3,317
320,77	6,853
320,98	9,423
321,19	9,307
321,40	7,341
321,62	4,821
321,83	-0,344
322,04	6,295
322,25	7,075
322,46	11,039
322,67	8,062
322,88	9,637
323,09	7,186
323,30	9,637
323,51	10,218
323,72	6,268
323,93	3,506
324,14	5,151
324,35	0,821
324,56	4,964
324,77	4,305
324,99	6,042
325,20	4,135
325,41	6,392
325,62	5,377
325,83	1,582
326,04	3,158
326,25	5,604
326,46	3,008
326,67	7,566
326,88	5,299
327,09	4,046
327,30	5,136
327,51	5,258
327,72	5,299
327,93	5,445
328,14	1,621
328,35	6,726
328,56	6,191
328,77	9,417
328,98	7,109
329,19	4,111
329,40	7,029
329,61	4,198
329,82	3,026
330,04	8,387
330,25	7,161
330,46	7,857
330,67	4,636
330,88	7,768
331,09	3,643
331,30	7,206
331,51	6,451
331,72	8,909
331,93	5,478
332,14	3,140
332,35	7,400
332,56	4,270
332,77	10,798
332,98	5,460
333,19	5,327
333,40	6,034
333,61	4,369
333,82	6,855
334,03	6,790
334,24	12,360
334,45	6,963
334,66	7,553
334,87	6,395
335,08	2,495
335,29	3,357
335,50	5,327
335,71	4,570
335,92	7,524
336,13	7,351
336,34	2,446
336,55	5,973
336,76	7,205
336,97	4,827
337,18	3,977
337,39	5,811
337,60	7,744
337,81	5,439
338,02	7,400
338,23	5,164
338,44	6,072
338,65	2,243
338,86	7,638
339,07	5,983
339,28	3,690
339,49	5,661
339,70	3,111
339,91	3,173
340,11	10,888
340,32	3,946
340,53	3,552
340,74	3,737
340,95	4,229
341,16	4,010
341,37	7,666
341,58	5,949
341,79	3,590
342,00	5,003
342,21	0,242
342,42	5,456
342,63	9,206
342,84	7,132
343,05	4,015
343,26	8,564
343,47	7,585
343,68	4,248
343,89	3,115
344,10	3,855
344,31	5,706
344,52	6,116
344,73	2,249
344,94	2,756
345,14	5,945
345,35	2,999
345,56	1,304
345,77	2,720
345,98	5,574
346,19	6,078
346,40	8,206
346,61	1,525
346,82	6,678
347,03	10,148
347,24	2,732
347,45	6,088
347,66	9,065
347,87	2,453
348,08	11,335
348,28	4,276
348,49	5,455
348,70	6,557
348,91	6,285
349,12	5,478
349,33	1,031
349,54	6,369
349,75	6,246
349,96	5,341
350,17	7,750
350,38	2,159
350,59	4,072
350,80	3,927
351,00	3,722
351,21	11,459
351,42	3,548
351,63	5,918
351,84	5,460
352,05	6,793
352,26	5,875
352,47	6,436
352,68	8,260
352,89	6,130
353,09	3,775
353,30	2,934
353,51	2,931
353,72	10,490
353,93	9,156
354,14	5,325
354,35	5,870
354,56	8,757
354,77	2,491
354,98	3,742
355,18	8,661
355,39	10,583
355,60	2,220
355,81	7,529
356,02	5,240
356,23	3,771
356,44	6,862
356,65	4,928
356,85	9,070
357,06	9,490
357,27	7,276
357,48	2,651
357,69	8,848
357,90	8,332
358,11	-0,795
358,32	2,960
358,52	7,533
358,73	4,679
358,94	3,863
359,15	6,028
359,36	7,959
359,57	5,718
359,78	9,489
359,98	7,948
360,19	2,697
360,40	4,741
360,61	10,558
360,82	3,438
361,03	13,786
361,24	17,461
361,44	3,980
361,65	7,708
361,86	4,277
362,07	8,243
362,28	11,164
362,49	7,714
362,70	7,405
362,90	5,477
363,11	3,524
363,32	1,844
363,53	5,261
363,74	12,514
363,95	8,907
364,15	5,252
364,36	9,647
364,57	3,760
364,78	4,828
364,99	3,333
365,20	8,383
365,40	10,153
365,61	5,982
365,82	4,711
366,03	11,074
366,24	3,434
366,45	0,958
366,65	2,569
366,86	6,797
367,07	4,808
367,28	1,477
367,49	4,690
367,69	10,116
367,90	6,030
368,11	7,309
368,32	3,608
368,53	9,429
368,73	5,322
368,94	6,160
369,15	7,908
369,36	8,965
369,57	6,880
369,78	5,659
369,98	8,305
370,19	10,682
370,40	2,757
370,61	6,393
370,82	7,789
371,02	12,240
371,23	6,540
371,44	4,353
371,65	3,654
371,85	12,311
372,06	3,117
372,27	7,004
372,48	5,129
372,69	9,961
372,89	7,124
373,10	6,075
373,31	7,278
373,52	7,415
373,73	10,066
373,93	7,960
374,14	4,622
374,35	8,395
374,56	6,472
374,76	7,164
374,97	6,794
375,18	10,616
375,39	7,308
375,60	8,790
375,80	3,875
376,01	4,887
376,22	9,941
376,43	7,688
376,63	8,891
376,84	8,695
377,05	8,290
377,26	5,838
377,46	5,905
377,67	5,219
377,88	4,046
378,09	7,930
378,29	8,005
378,50	5,611
378,71	7,056
378,92	4,301
379,12	3,566
379,33	5,738
379,54	7,240
379,75	9,370
379,95	7,634
380,16	8,878
380,37	9,227
380,58	4,155
380,78	10,219
380,99	4,322
381,20	7,506
381,41	9,659
381,61	6,107
381,82	7,103
382,03	9,961
382,24	10,059
382,44	7,431
382,65	9,718
382,86	11,608
383,06	12,347
383,27	6,977
383,48	8,823
383,69	7,304
383,89	5,701
384,10	5,822
384,31	7,076
384,51	12,897
384,72	12,323
384,93	6,649
385,14	4,406
385,34	5,522
385,55	5,341
385,76	3,515
385,96	11,616
386,17	7,408
386,38	5,090
386,59	13,374
386,79	8,735
387,00	14,819
387,21	13,323
387,41	9,524
387,62	9,941
387,83	10,630
388,03	8,135
388,24	9,269
388,45	10,623
388,66	9,451
388,86	7,612
389,07	6,916
389,28	18,760
389,48	11,030
389,69	8,271
389,90	5,039
390,10	7,746
390,31	12,516
390,52	9,484
390,72	8,157
390,93	9,765
391,14	10,862
391,34	12,385
391,55	11,542
391,76	13,677
391,96	17,358
392,17	9,580
392,38	9,994
392,58	11,063
392,79	8,264
393,00	9,660
393,20	9,652
393,41	10,937
393,62	16,395
393,82	11,568
394,03	12,391
394,24	12,438
394,44	13,503
394,65	14,015
394,86	11,148
395,06	16,242
395,27	11,858
395,48	12,938
395,68	10,593
395,89	12,214
396,10	17,134
396,30	9,507
396,51	8,663
396,72	14,430
396,92	9,685
397,13	15,982
397,34	9,491
397,54	14,289
397,75	11,511
397,95	10,723
398,16	14,590
398,37	14,889
398,57	8,958
398,78	12,102
398,99	12,585
399,19	17,067
399,40	22,940
399,60	13,234
399,81	17,324
400,02	20,586
400,22	17,594
400,43	18,650
400,64	13,553
400,84	11,730
401,05	16,807
401,25	16,466
401,46	13,279
401,67	19,434
401,87	14,600
402,08	11,392
402,29	18,249
402,49	20,711
402,70	17,587
402,90	13,355
403,11	17,610
403,32	12,668
403,52	13,868
403,73	16,296
403,93	21,412
404,14	26,371
404,35	16,319
404,55	13,050
404,76	19,085
404,96	18,177
405,17	22,282
405,38	23,601
405,58	18,126
405,79	23,475
405,99	23,346
406,20	20,278
406,40	19,382
406,61	18,924
406,82	21,207
407,02	21,744
407,23	17,262
407,43	21,501
407,64	13,837
407,85	19,655
408,05	13,116
408,26	29,104
408,46	27,242
408,67	19,496
408,87	21,206
409,08	17,120
409,29	25,246
409,49	26,485
409,70	22,628
409,90	22,801
410,11	26,180
410,31	25,182
410,52	21,914
410,72	21,647
410,93	25,074
411,14	22,107
411,34	20,107
411,55	21,512
411,75	23,913
411,96	25,419
412,16	24,548
412,37	20,876
412,57	25,331
412,78	27,662
412,99	22,011
413,19	27,067
413,40	23,639
413,60	23,345
413,81	24,560
414,01	20,979
414,22	22,071
414,42	24,633
414,63	22,483
414,83	24,168
415,04	29,942
415,24	22,810
415,45	22,510
415,65	29,332
415,86	31,312
416,07	22,285
416,27	28,440
416,48	28,306
416,68	35,674
416,89	22,410
417,09	27,373
417,30	32,044
417,50	23,594
417,71	28,624
417,91	28,831
418,12	25,681
418,32	27,265
418,53	22,459
418,73	27,749
418,94	25,755
419,14	29,095
419,35	23,596
419,55	28,008
419,76	29,894
419,96	28,430
420,17	23,509
420,37	26,205
420,58	31,910
420,78	32,179
420,99	25,674
421,19	31,721
421,40	33,662
421,60	33,168
421,81	25,276
422,01	29,197
422,22	30,350
422,42	30,466
422,63	34,681
422,83	30,105
423,04	34,953
423,24	39,368
423,45	28,110
423,65	27,361
423,86	34,350
424,06	32,030
424,27	26,231
424,47	28,204
424,67	26,451
424,88	31,547
425,08	29,292
425,29	34,077
425,49	25,828
425,70	28,068
425,90	28,021
426,11	30,577
426,31	31,543
426,52	32,287
426,72	30,073
426,93	28,944
427,13	34,903
427,33	26,271
427,54	31,221
427,74	31,406
427,95	36,214
428,15	29,875
428,36	30,550
428,56	27,323
428,77	31,159
428,97	32,691
429,18	28,249
429,38	31,196
429,58	30,941
429,79	33,115
429,99	26,990
430,20	30,058
430,40	35,941
430,61	29,394
430,81	28,918
431,01	32,790
431,22	34,038
431,42	34,522
431,63	29,461
431,83	31,902
432,04	34,125
432,24	36,533
432,44	32,628
432,65	31,242
432,85	33,368
433,06	33,461
433,26	29,710
433,47	29,291
433,67	28,839
433,87	30,214
434,08	30,588
434,28	28,299
434,49	30,670
434,69	42,477
434,89	34,353
435,10	29,323
435,30	37,966
435,51	27,745
435,71	28,362
435,91	29,689
436,12	31,336
436,32	29,428
436,53	32,464
436,73	33,404
436,93	32,322
437,14	30,586
437,34	31,826
437,55	28,453
437,75	32,822
437,95	37,008
438,16	29,421
438,36	32,184
438,57	31,337
438,77	30,730
438,97	32,152
439,18	35,518
439,38	30,595
439,58	30,391
439,79	30,466
439,99	29,407
440,20	38,193
440,40	35,980
440,60	35,007
440,81	31,635
441,01	33,327
441,21	32,499
441,42	32,549
441,62	34,119
441,83	34,708
442,03	29,764
442,23	35,769
442,44	33,077
442,64	37,306
442,84	30,293
443,05	33,230
443,25	32,162
443,45	34,081
443,66	35,897
443,86	28,185
444,06	34,153
444,27	30,889
444,47	37,419
444,67	31,667
444,88	35,002
445,08	32,387
445,28	28,732
445,49	37,058
445,69	31,609
445,90	38,218
446,10	36,709
446,30	30,736
446,51	32,460
446,71	35,182
446,91	36,201
447,12	38,648
447,32	29,879
447,52	32,888
447,72	36,849
447,93	30,324
448,13	29,777
448,33	37,922
448,54	34,603
448,74	29,422
448,94	31,456
449,15	38,750
449,35	28,609
449,55	36,000
449,76	31,011
449,96	29,284
450,16	34,187
450,37	30,881
450,57	33,265
450,77	30,453
450,98	30,254
451,18	36,430
451,38	35,258
451,58	37,059
451,79	30,414
451,99	32,818
