Fichero De Datos De SpectraSuite
++++++++++++++++++++++++++++++++++++
Fecha: Wed Apr 22 10:19:46 CEST 2009
Usuario: evoflor
Presente Oscuro Del Espectro: Sí
La Referencia de Presente Del Espectro De: Sí
Muestreados de los componentes de Número de espectros: 1
Espectrómetros: USB4F02353
Tiempo de integración (usec): 500000 (USB4F02353)
Promedio de Espectros Hechos un: 5 (USB4F02353)
El Alisar Del Furgón: 0 (USB4F02353)
Párrafo de de Corregir del la del del de Eléctrica del obscuridad: Sí (USB4F02353)
Estrobo/Lámpara Permitido: No (USB4F02353)
Correct for Detector Non-linearity: No (USB4F02353)
Párrafo de de Corregir del la del del de Externa del luz: No (USB4F02353)
Procesado del espectro de Número de pixeles en: 3648
>>>>> Comienza Data<<<<< Espectral Procesado Del EL
177,79	138,146
178,00	138,146
178,22	138,146
178,44	380,110
178,66	101,618
178,88	-16,319
179,09	-113,234
179,31	79,148
179,53	196,625
179,75	283,464
179,96	493,190
180,18	42,738
180,40	291,115
180,62	237,692
180,83	-42,521
181,05	-181,829
181,27	47190,000
181,49	2,804
181,70	67,731
181,92	258,426
182,14	126,235
182,36	245,105
182,58	507,900
182,79	70,580
183,01	104,122
183,23	118,264
183,45	-198,185
183,66	97,301
183,88	18,882
184,10	-1580,182
184,32	141,609
184,53	100,882
184,75	-7,352
184,97	15,533
185,18	-78,778
185,40	-266,394
185,62	118,990
185,84	63,996
186,05	75,215
186,27	6,030
186,49	-1849,615
186,71	-69,300
186,92	35,441
187,14	144,510
187,36	79,885
187,58	75,626
187,79	90,866
188,01	77,295
188,23	220,994
188,45	74,421
188,66	203,170
188,88	318,000
189,10	-248,100
189,31	146,570
189,53	201,296
189,75	121,841
189,97	-15,346
190,18	29,227
190,40	363,000
190,62	73,526
190,83	-39,514
191,05	68,060
191,27	-24,257
191,49	119,332
191,70	144,663
191,92	56,695
192,14	45,906
192,35	58,647
192,57	606,000
192,79	66,617
193,01	47,355
193,22	116,545
193,44	-3,942
193,66	128,756
193,87	51,199
194,09	47,432
194,31	119,893
194,53	500,769
194,74	-54,339
194,96	34,028
195,18	58,202
195,39	46,148
195,61	31,734
195,83	53,674
196,04	109,394
196,26	-301,055
196,48	76,796
196,70	-54,453
196,91	43,415
197,13	35,468
197,35	-65,919
197,56	514,272
197,78	554,552
198,00	381,189
198,21	225,291
198,43	-332,616
198,65	36,180
198,86	-14,353
199,08	-134,066
199,30	61,154
199,51	-45,635
199,73	204,864
199,95	-74,480
200,16	403,500
200,38	-80,436
200,60	144,522
200,81	33,854
201,03	-52,418
201,25	-572,100
201,46	72,498
201,68	29,321
201,90	993,409
202,11	-125,611
202,33	-39,479
202,55	-556,125
202,76	25,160
202,98	-101,707
203,20	-171,202
203,41	-466,895
203,63	74,417
203,85	16590,000
204,06	253,852
204,28	-5,566
204,50	13,668
204,71	64,505
204,93	-175,920
205,15	128,946
205,36	62,696
205,58	127,083
205,80	-42,773
206,01	37,869
206,23	93,336
206,45	101,448
206,66	64,176
206,88	12,756
207,10	-313,841
207,31	199,748
207,53	96,600
207,75	71,663
207,96	-405,896
208,18	-45,410
208,39	71,800
208,61	1326,000
208,83	-163,801
209,04	4,946
209,26	-23,088
209,48	142,366
209,69	77,758
209,91	302,736
210,13	55,752
210,34	114,552
210,56	65,107
210,77	-1074,094
210,99	-53,118
211,21	2782,941
211,42	-7,314
211,64	46,061
211,86	164,337
212,07	159,408
212,29	51,756
212,50	93,797
212,72	240,808
212,94	178,555
213,15	84,906
213,37	-23,380
213,58	32,794
213,80	-3103,929
214,02	-1928,824
214,23	112,609
214,45	110,852
214,67	-390,366
214,88	140,235
215,10	-81,708
215,31	-85,349
215,53	-15,205
215,75	113,583
215,96	1048,509
216,18	-360,423
216,39	90,834
216,61	193,690
216,83	-74,063
217,04	703,483
217,26	79,210
217,47	163,128
217,69	176,763
217,91	177,294
218,12	14790,000
218,34	57,351
218,55	99,231
218,77	95,021
218,99	69,950
219,20	-30,762
219,42	103,674
219,63	-1,087
219,85	-49,390
220,06	237,346
220,28	104,816
220,50	-65,348
220,71	85,284
220,93	1622,830
221,14	-230,100
221,36	129,809
221,58	-12,382
221,79	-210,145
222,01	-166,293
222,22	-150,592
222,44	-783,034
222,65	66,641
222,87	-285,944
223,09	129,634
223,30	59,870
223,52	57,571
223,73	20,231
223,95	-55,056
224,16	-6,371
224,38	210,213
224,60	50,785
224,81	-157,517
225,03	95,716
225,24	144,378
225,46	54,668
225,67	8,095
225,89	5,380
226,10	229,247
226,32	522,480
226,54	4,096
226,75	28,452
226,97	33,506
227,18	25,750
227,40	101,848
227,61	34,588
227,83	-8,927
228,04	40,755
228,26	2,514
228,47	27,114
228,69	-33,120
228,91	-8,431
229,12	35,230
229,34	25,181
229,55	26,200
229,77	-43,695
229,98	8,532
230,20	40,581
230,41	-19,914
230,63	25,576
230,84	-81,486
231,06	7,862
231,27	11,242
231,49	27,484
231,71	9,325
231,92	12,036
232,14	26,019
232,35	33,752
232,57	67,350
232,78	-15,060
233,00	10,317
233,21	3,823
233,43	6,775
233,64	24,338
233,86	36,212
234,07	-23,702
234,29	2,400
234,50	10,415
234,72	12,355
234,93	6,689
235,15	20,397
235,36	14,666
235,58	12,051
235,79	4,349
236,01	10,628
236,22	17,985
236,44	31,966
236,65	15,342
236,87	9,461
237,08	-5,920
237,30	-12,292
237,51	9,631
237,73	0,077
237,94	19,972
238,16	2,676
238,37	-7,760
238,59	10,965
238,80	2,751
239,02	8,047
239,23	9,559
239,45	1,657
239,66	9,412
239,88	11,893
240,09	12,047
240,31	1,128
240,52	-4,640
240,74	0,710
240,95	4,662
241,17	-6,052
241,38	1,405
241,60	12,863
241,81	17,740
242,03	7,097
242,24	1,656
242,46	13,649
242,67	2,478
242,89	14,516
243,10	16,516
243,32	9,439
243,53	6,941
243,75	6,655
243,96	11,856
244,18	7,757
244,39	7,526
244,60	13,836
244,82	0,244
245,03	11,244
245,25	2,420
245,46	9,622
245,68	5,974
245,89	11,262
246,11	3,598
246,32	16,672
246,54	2,137
246,75	8,457
246,97	8,338
247,18	12,921
247,39	5,911
247,61	3,658
247,82	8,438
248,04	8,498
248,25	5,331
248,47	12,015
248,68	6,724
248,90	2,886
249,11	10,009
249,33	10,262
249,54	1,594
249,75	10,963
249,97	3,376
250,18	8,425
250,40	13,952
250,61	-1,567
250,83	2,451
251,04	1,243
251,25	7,829
251,47	2,393
251,68	1,454
251,90	4,711
252,11	7,186
252,33	6,290
252,54	5,549
252,76	6,386
252,97	6,694
253,18	5,227
253,40	3,638
253,61	4,540
253,83	4,574
254,04	9,918
254,25	7,624
254,47	5,220
254,68	3,203
254,90	4,242
255,11	7,503
255,33	4,729
255,54	4,438
255,75	2,307
255,97	4,675
256,18	-0,724
256,40	2,189
256,61	7,707
256,82	0,163
257,04	8,537
257,25	4,912
257,47	9,695
257,68	4,608
257,89	4,584
258,11	10,426
258,32	2,532
258,54	8,403
258,75	6,469
258,96	7,760
259,18	7,687
259,39	1,957
259,61	8,709
259,82	5,946
260,03	9,099
260,25	6,539
260,46	3,631
260,68	2,734
260,89	7,543
261,10	3,667
261,32	4,257
261,53	7,595
261,75	7,933
261,96	1,853
262,17	5,459
262,39	6,819
262,60	5,963
262,81	0,480
263,03	8,306
263,24	4,306
263,46	-1,658
263,67	8,094
263,88	4,437
264,10	3,928
264,31	0,729
264,52	7,138
264,74	4,031
264,95	1,311
265,17	5,080
265,38	0,301
265,59	4,738
265,81	9,340
266,02	2,810
266,23	5,239
266,45	6,458
266,66	5,735
266,87	9,038
267,09	7,620
267,30	5,801
267,52	7,354
267,73	7,545
267,94	6,267
268,16	9,387
268,37	1,486
268,58	5,995
268,80	5,581
269,01	2,088
269,22	3,788
269,44	5,294
269,65	5,041
269,86	3,025
270,08	10,485
270,29	5,661
270,50	3,902
270,72	4,826
270,93	1,572
271,14	0,349
271,36	2,185
271,57	7,111
271,78	5,793
272,00	5,942
272,21	6,309
272,42	5,758
272,64	4,216
272,85	3,027
273,06	5,428
273,28	6,506
273,49	8,489
273,70	7,038
273,92	3,711
274,13	7,297
274,34	6,456
274,56	6,221
274,77	2,975
274,98	5,380
275,20	7,365
275,41	10,474
275,62	8,536
275,84	6,196
276,05	4,562
276,26	7,284
276,47	5,784
276,69	5,242
276,90	6,435
277,11	1,585
277,33	7,339
277,54	3,779
277,75	5,104
277,97	1,872
278,18	7,345
278,39	7,680
278,61	3,337
278,82	5,543
279,03	7,934
279,24	5,527
279,46	2,712
279,67	8,352
279,88	6,210
280,10	7,915
280,31	-0,370
280,52	5,170
280,73	3,282
280,95	6,923
281,16	8,150
281,37	5,861
281,59	6,353
281,80	7,586
282,01	5,478
282,22	4,566
282,44	3,689
282,65	10,750
282,86	8,277
283,08	5,220
283,29	5,382
283,50	5,188
283,71	8,697
283,93	4,921
284,14	7,760
284,35	1,405
284,56	5,368
284,78	2,892
284,99	5,901
285,20	5,768
285,42	7,310
285,63	7,115
285,84	6,848
286,05	1,478
286,27	5,453
286,48	1,712
286,69	3,963
286,90	5,827
287,12	4,374
287,33	5,053
287,54	6,870
287,75	3,529
287,97	6,555
288,18	3,663
288,39	1,869
288,60	1,734
288,82	5,260
289,03	4,790
289,24	4,536
289,45	6,331
289,67	3,880
289,88	2,714
290,09	3,616
290,30	4,891
290,52	6,760
290,73	5,318
290,94	3,396
291,15	4,486
291,37	4,052
291,58	4,439
291,79	3,378
292,00	5,931
292,21	5,044
292,43	3,015
292,64	5,293
292,85	-0,654
293,06	7,130
293,28	2,512
293,49	2,258
293,70	4,680
293,91	5,287
294,12	3,553
294,34	3,646
294,55	3,863
294,76	4,674
294,97	7,002
295,19	2,350
295,40	8,135
295,61	5,535
295,82	6,278
296,03	4,785
296,25	3,894
296,46	2,750
296,67	4,222
296,88	1,786
297,09	6,402
297,31	3,621
297,52	3,448
297,73	2,984
297,94	6,221
298,15	5,134
298,37	6,101
298,58	6,975
298,79	7,982
299,00	1,250
299,21	4,352
299,43	3,661
299,64	6,089
299,85	7,411
300,06	3,079
300,27	5,301
300,49	7,845
300,70	3,691
300,91	4,573
301,12	5,781
301,33	5,435
301,54	4,755
301,76	4,237
301,97	4,463
302,18	6,258
302,39	7,104
302,60	7,912
302,82	3,894
303,03	5,964
303,24	5,093
303,45	5,014
303,66	4,130
303,87	4,910
304,09	5,945
304,30	3,465
304,51	3,975
304,72	3,530
304,93	4,977
305,14	4,065
305,36	4,308
305,57	1,591
305,78	4,605
305,99	4,690
306,20	4,380
306,41	3,382
306,62	3,945
306,84	4,182
307,05	5,643
307,26	5,056
307,47	6,005
307,68	3,172
307,89	5,338
308,11	3,987
308,32	1,937
308,53	4,223
308,74	3,658
308,95	5,666
309,16	5,190
309,37	6,025
309,59	3,610
309,80	5,754
310,01	6,550
310,22	6,508
310,43	3,006
310,64	5,433
310,85	3,153
311,06	5,034
311,28	4,940
311,49	4,105
311,70	5,454
311,91	2,514
312,12	5,391
312,33	7,805
312,54	5,931
312,75	3,827
312,97	3,304
313,18	4,032
313,39	4,152
313,60	6,202
313,81	5,758
314,02	1,651
314,23	7,026
314,44	3,508
314,65	5,090
314,87	4,653
315,08	5,123
315,29	7,466
315,50	3,302
315,71	3,084
315,92	7,972
316,13	6,690
316,34	4,625
316,55	3,680
316,77	2,461
316,98	5,059
317,19	4,992
317,40	4,835
317,61	7,039
317,82	4,135
318,03	3,571
318,24	3,947
318,45	3,814
318,66	4,874
318,87	4,241
319,09	6,196
319,30	5,174
319,51	4,241
319,72	7,518
319,93	5,376
320,14	4,140
320,35	5,475
320,56	2,894
320,77	1,800
320,98	10,368
321,19	5,625
321,40	2,887
321,62	3,695
321,83	6,759
322,04	4,858
322,25	5,250
322,46	4,785
322,67	5,890
322,88	5,251
323,09	3,614
323,30	4,791
323,51	4,467
323,72	7,426
323,93	5,957
324,14	4,928
324,35	2,594
324,56	2,896
324,77	4,492
324,99	4,251
325,20	5,910
325,41	3,573
325,62	5,288
325,83	3,686
326,04	3,200
326,25	5,135
326,46	2,668
326,67	5,030
326,88	6,845
327,09	5,092
327,30	5,087
327,51	5,555
327,72	4,470
327,93	6,002
328,14	0,606
328,35	2,811
328,56	5,642
328,77	3,648
328,98	6,756
329,19	4,472
329,40	5,324
329,61	6,644
329,82	2,803
330,04	2,097
330,25	2,485
330,46	3,955
330,67	4,025
330,88	2,702
331,09	5,522
331,30	2,906
331,51	5,944
331,72	2,731
331,93	3,023
332,14	5,029
332,35	7,441
332,56	3,928
332,77	4,564
332,98	2,326
333,19	3,011
333,40	2,976
333,61	3,540
333,82	6,250
334,03	3,778
334,24	3,758
334,45	3,983
334,66	7,934
334,87	5,397
335,08	2,771
335,29	1,738
335,50	1,889
335,71	3,135
335,92	5,835
336,13	6,116
336,34	3,452
336,55	4,496
336,76	4,711
336,97	3,218
337,18	4,075
337,39	5,553
337,60	3,712
337,81	5,336
338,02	1,576
338,23	3,535
338,44	3,980
338,65	5,546
338,86	5,858
339,07	1,240
339,28	5,856
339,49	4,880
339,70	2,534
339,91	2,284
340,11	4,877
340,32	5,334
340,53	3,713
340,74	1,914
340,95	2,557
341,16	6,565
341,37	4,824
341,58	3,365
341,79	3,449
342,00	6,096
342,21	4,788
342,42	2,954
342,63	3,558
342,84	0,441
343,05	3,079
343,26	5,938
343,47	0,157
343,68	2,808
343,89	4,484
344,10	3,823
344,31	7,184
344,52	4,473
344,73	4,838
344,94	6,146
345,14	3,435
345,35	5,316
345,56	5,706
345,77	3,130
345,98	4,213
346,19	2,807
346,40	0,818
346,61	6,007
346,82	3,818
347,03	1,649
347,24	5,064
347,45	2,172
347,66	6,039
347,87	5,333
348,08	6,470
348,28	2,440
348,49	5,105
348,70	7,036
348,91	7,255
349,12	0,729
349,33	2,898
349,54	4,140
349,75	3,251
349,96	4,576
350,17	4,705
350,38	3,203
350,59	8,157
350,80	3,201
351,00	4,999
351,21	7,587
351,42	5,869
351,63	0,636
351,84	2,681
352,05	6,129
352,26	6,012
352,47	5,798
352,68	5,200
352,89	5,428
353,09	8,110
353,30	3,719
353,51	6,548
353,72	4,859
353,93	4,020
354,14	2,976
354,35	4,705
354,56	5,648
354,77	3,991
354,98	1,662
355,18	4,895
355,39	3,190
355,60	6,454
355,81	3,009
356,02	4,500
356,23	4,767
356,44	4,155
356,65	4,802
356,85	11,625
357,06	5,675
357,27	7,123
357,48	5,265
357,69	6,236
357,90	5,782
358,11	2,802
358,32	4,671
358,52	2,688
358,73	6,782
358,94	6,151
359,15	6,907
359,36	5,361
359,57	3,628
359,78	2,726
359,98	5,031
360,19	2,035
360,40	2,455
360,61	7,260
360,82	3,995
361,03	5,545
361,24	5,725
361,44	3,587
361,65	5,073
361,86	3,886
362,07	7,518
362,28	5,078
362,49	4,246
362,70	5,319
362,90	5,807
363,11	3,191
363,32	4,486
363,53	8,111
363,74	6,040
363,95	5,868
364,15	4,584
364,36	7,235
364,57	5,601
364,78	3,702
364,99	6,082
365,20	5,113
365,40	3,693
365,61	3,400
365,82	5,180
366,03	3,353
366,24	5,077
366,45	4,049
366,65	5,605
366,86	0,870
367,07	5,406
367,28	4,906
367,49	6,430
367,69	6,285
367,90	3,378
368,11	5,402
368,32	4,140
368,53	6,260
368,73	5,704
368,94	2,477
369,15	4,682
369,36	5,346
369,57	5,526
369,78	3,889
369,98	7,190
370,19	7,254
370,40	6,545
370,61	3,902
370,82	5,823
371,02	2,473
371,23	7,344
371,44	5,005
371,65	4,077
371,85	5,112
372,06	6,799
372,27	5,252
372,48	5,893
372,69	6,555
372,89	6,014
373,10	4,985
373,31	3,805
373,52	10,253
373,73	8,999
373,93	6,310
374,14	6,282
374,35	11,251
374,56	7,927
374,76	7,823
374,97	3,586
375,18	5,863
375,39	7,474
375,60	6,526
375,80	8,382
376,01	3,499
376,22	6,858
376,43	6,600
376,63	6,648
376,84	3,800
377,05	8,191
377,26	4,495
377,46	6,947
377,67	6,337
377,88	8,745
378,09	8,729
378,29	2,392
378,50	9,655
378,71	5,720
378,92	4,966
379,12	8,780
379,33	5,770
379,54	7,396
379,75	5,915
379,95	6,355
380,16	6,937
380,37	7,007
380,58	7,324
380,78	5,873
380,99	6,524
381,20	9,426
381,41	7,999
381,61	8,727
381,82	8,812
382,03	6,720
382,24	8,157
382,44	8,507
382,65	7,185
382,86	4,759
383,06	7,079
383,27	8,125
383,48	8,374
383,69	6,630
383,89	7,756
384,10	11,625
384,31	9,920
384,51	8,550
384,72	4,130
384,93	4,951
385,14	10,996
385,34	9,066
385,55	8,202
385,76	8,166
385,96	9,195
386,17	5,827
386,38	8,949
386,59	11,872
386,79	7,398
387,00	11,903
387,21	11,301
387,41	11,268
387,62	10,805
387,83	10,758
388,03	8,352
388,24	10,412
388,45	11,513
388,66	13,335
388,86	13,140
389,07	6,077
389,28	13,231
389,48	13,003
389,69	10,248
389,90	13,425
390,10	14,945
390,31	10,018
390,52	9,910
390,72	9,905
390,93	12,615
391,14	9,753
391,34	12,350
391,55	13,250
391,76	14,824
391,96	10,628
392,17	15,012
392,38	14,151
392,58	13,356
392,79	14,314
393,00	12,169
393,20	11,877
393,41	13,506
393,62	11,221
393,82	13,893
394,03	12,169
394,24	16,920
394,44	14,607
394,65	14,418
394,86	12,426
395,06	11,686
395,27	13,218
395,48	13,510
395,68	15,893
395,89	14,910
396,10	14,644
396,30	14,933
396,51	13,301
396,72	14,736
396,92	12,874
397,13	16,123
397,34	12,478
397,54	16,199
397,75	15,661
397,95	14,980
398,16	17,725
398,37	13,243
398,57	15,212
398,78	18,400
398,99	16,586
399,19	17,915
399,40	18,428
399,60	14,958
399,81	15,903
400,02	18,214
400,22	15,759
400,43	20,205
400,64	19,760
400,84	17,156
401,05	19,434
401,25	18,563
401,46	19,416
401,67	18,425
401,87	16,349
402,08	17,641
402,29	18,310
402,49	19,534
402,70	19,545
402,90	16,154
403,11	18,252
403,32	21,997
403,52	18,967
403,73	20,685
403,93	18,743
404,14	16,939
404,35	21,776
404,55	21,516
404,76	18,869
404,96	22,508
405,17	23,152
405,38	24,895
405,58	18,631
405,79	22,445
405,99	17,513
406,20	21,094
406,40	22,395
406,61	25,124
406,82	17,850
407,02	23,276
407,23	21,424
407,43	21,638
407,64	20,101
407,85	19,877
408,05	21,341
408,26	25,331
408,46	22,993
408,67	18,266
408,87	21,261
409,08	25,488
409,29	20,639
409,49	25,659
409,70	21,272
409,90	25,169
410,11	22,630
410,31	22,638
410,52	24,506
410,72	23,860
410,93	27,814
411,14	21,669
411,34	22,610
411,55	27,002
411,75	27,177
411,96	22,362
412,16	23,784
412,37	23,829
412,57	25,074
412,78	22,443
412,99	27,509
413,19	20,668
413,40	25,129
413,60	22,786
413,81	22,177
414,01	23,648
414,22	21,729
414,42	22,862
414,63	24,031
414,83	28,286
415,04	26,281
415,24	25,235
415,45	24,985
415,65	23,389
415,86	24,682
416,07	26,631
416,27	25,185
416,48	25,981
416,68	25,612
416,89	25,902
417,09	29,611
417,30	29,591
417,50	30,422
417,71	28,343
417,91	30,571
418,12	25,524
418,32	25,520
418,53	30,384
418,73	27,733
418,94	23,299
419,14	29,690
419,35	21,921
419,55	27,327
419,76	30,259
419,96	25,857
420,17	27,177
420,37	26,253
420,58	28,126
420,78	27,523
420,99	29,600
421,19	31,876
421,40	26,936
421,60	28,583
421,81	27,714
422,01	29,713
422,22	23,785
422,42	28,948
422,63	29,061
422,83	29,658
423,04	26,365
423,24	26,729
423,45	23,898
423,65	30,755
423,86	27,678
424,06	30,349
424,27	31,529
424,47	27,241
424,67	28,798
424,88	27,822
425,08	31,648
425,29	32,939
425,49	29,436
425,70	23,990
425,90	32,737
426,11	31,639
426,31	28,166
426,52	30,147
426,72	29,586
426,93	27,404
427,13	28,246
427,33	29,839
427,54	31,885
427,74	29,060
427,95	28,820
428,15	31,163
428,36	30,676
428,56	31,963
428,77	27,753
428,97	28,374
429,18	33,367
429,38	26,583
429,58	33,274
429,79	32,467
429,99	35,175
430,20	24,675
430,40	31,423
430,61	31,999
430,81	27,766
431,01	30,203
431,22	27,625
431,42	32,202
431,63	29,142
431,83	30,640
432,04	27,760
432,24	34,010
432,44	26,780
432,65	27,700
432,85	26,519
433,06	30,089
433,26	27,342
433,47	28,781
433,67	27,708
433,87	29,869
434,08	25,584
434,28	30,802
434,49	29,575
434,69	29,785
434,89	29,879
435,10	30,122
435,30	31,979
435,51	28,513
435,71	31,380
435,91	30,631
436,12	31,171
436,32	28,380
436,53	25,996
436,73	29,972
436,93	29,921
437,14	31,349
437,34	31,189
437,55	31,929
437,75	29,281
437,95	30,011
438,16	32,571
438,36	27,556
438,57	26,917
438,77	30,468
438,97	31,903
439,18	32,534
439,38	30,344
439,58	27,124
439,79	32,174
439,99	31,781
440,20	32,391
440,40	29,996
440,60	34,219
440,81	36,332
441,01	32,416
441,21	31,488
441,42	32,452
441,62	33,738
441,83	33,031
442,03	29,743
442,23	34,413
442,44	30,529
442,64	32,768
442,84	30,056
443,05	29,483
443,25	29,263
443,45	33,811
443,66	31,526
443,86	32,293
444,06	32,527
444,27	27,433
444,47	30,028
444,67	35,221
444,88	32,700
445,08	33,620
445,28	33,577
445,49	30,677
445,69	27,630
445,90	32,786
446,10	30,528
446,30	32,854
446,51	33,355
446,71	36,049
446,91	37,590
447,12	34,547
447,32	31,637
447,52	30,232
447,72	34,567
447,93	33,403
448,13	30,200
448,33	34,448
448,54	34,969
448,74	28,220
448,94	33,319
449,15	34,933
449,35	35,198
449,55	31,277
449,76	36,235
449,96	33,660
450,16	34,796
450,37	29,449
450,57	34,055
450,77	29,305
450,98	33,613
451,18	33,707
451,38	33,318
451,58	37,109
451,79	38,056
451,99	33,684
452,19	32,136
452,40	32,541
452,60	34,724
452,80	32,229
453,00	34,515
453,21	35,112
453,41	35,596
453,61	36,174
453,82	34,487
454,02	30,893
454,22	31,887
