Fichero De Datos De SpectraSuite
++++++++++++++++++++++++++++++++++++
Fecha: Wed Apr 22 10:21:28 CEST 2009
Usuario: evoflor
Presente Oscuro Del Espectro: Sí
La Referencia de Presente Del Espectro De: Sí
Muestreados de los componentes de Número de espectros: 1
Espectrómetros: USB4F02353
Tiempo de integración (usec): 500000 (USB4F02353)
Promedio de Espectros Hechos un: 5 (USB4F02353)
El Alisar Del Furgón: 0 (USB4F02353)
Párrafo de de Corregir del la del del de Eléctrica del obscuridad: Sí (USB4F02353)
Estrobo/Lámpara Permitido: No (USB4F02353)
Correct for Detector Non-linearity: No (USB4F02353)
Párrafo de de Corregir del la del del de Externa del luz: No (USB4F02353)
Procesado del espectro de Número de pixeles en: 3648
>>>>> Comienza Data<<<<< Espectral Procesado Del EL
177,79	177,767
178,00	177,767
178,22	177,767
178,44	-277,253
178,66	-26,180
178,88	193,388
179,09	-344,809
179,31	1,617
179,53	78,111
179,75	57,018
179,96	985,603
180,18	52,523
180,40	114,745
180,62	422,626
180,83	264,174
181,05	-571,098
181,27	-63930,000
181,49	172,109
181,70	-193,731
181,92	402,183
182,14	257,620
182,36	108,356
182,58	503,700
182,79	566,652
183,01	47,995
183,23	22,745
183,45	-77,631
183,66	-55,885
183,88	-148,059
184,10	-2111,455
184,32	115,916
184,53	57,269
184,75	-35,474
184,97	11,963
185,18	-55,883
185,40	-147,260
185,62	51,459
185,84	19,716
186,05	-11,399
186,27	-81,048
186,49	208,846
186,71	-77,218
186,92	41,391
187,14	115,375
187,36	31,801
187,58	126,128
187,79	10,897
188,01	101,592
188,23	-107,472
188,45	137,412
188,66	333,616
188,88	-213,273
189,10	-306,300
189,31	104,386
189,53	248,047
189,75	180,068
189,97	13,962
190,18	-308,884
190,40	481,941
190,62	-115,693
190,83	-117,374
191,05	137,409
191,27	272,657
191,49	202,797
191,70	-220,817
191,92	-68,898
192,14	-11,217
192,35	267,454
192,57	1543,714
192,79	156,167
193,01	61,224
193,22	113,415
193,44	-30,768
193,66	102,070
193,87	7,773
194,09	56,768
194,31	4,296
194,53	560,350
194,74	104,565
194,96	97,864
195,18	111,141
195,39	-28,575
195,61	-10,761
195,83	-117,457
196,04	37,170
196,26	-117,739
196,48	-0,037
196,70	30,477
196,91	-27,113
197,13	22,861
197,35	95,666
197,56	390,186
197,78	1202,463
198,00	522,587
198,21	485,097
198,43	57,384
198,65	95,774
198,86	161,978
199,08	-147,443
199,30	1,883
199,51	-140,814
199,73	148,973
199,95	294,134
200,16	225,115
200,38	178,692
200,60	128,431
200,81	212,056
201,03	-105,082
201,25	-900,300
201,46	180,907
201,68	117,936
201,90	287,045
202,11	27,366
202,33	192,334
202,55	-550,875
202,76	15,412
202,98	200,801
203,20	-116,971
203,41	-578,053
203,63	-2,883
203,85	-117930,000
204,06	27,216
204,28	23,783
204,50	71,151
204,71	23,905
204,93	-50,160
205,15	-176,114
205,36	-12,103
205,58	101,977
205,80	43,417
206,01	35,170
206,23	102,518
206,45	57,843
206,66	119,382
206,88	-4,588
207,10	-61,295
207,31	72,755
207,53	51,514
207,75	-11,806
207,96	127,836
208,18	-112,167
208,39	7,259
208,61	2058,000
208,83	-55,840
209,04	40,535
209,26	-398,295
209,48	261,292
209,69	108,919
209,91	225,101
210,13	68,740
210,34	-87,094
210,56	112,429
210,77	-1183,701
210,99	27,736
211,21	2331,176
211,42	64,336
211,64	99,319
211,86	159,133
212,07	132,702
212,29	51,314
212,50	80,573
212,72	-262,962
212,94	164,737
213,15	131,768
213,37	100,909
213,58	-53,947
213,80	352,500
214,02	7042,941
214,23	128,157
214,45	236,164
214,67	-1789,390
214,88	135,805
215,10	-60,264
215,31	-68,712
215,53	116,659
215,75	-7,774
215,96	145,528
216,18	-684,085
216,39	216,592
216,61	66,878
216,83	-19,955
217,04	859,888
217,26	23,274
217,47	126,024
217,69	208,265
217,91	30,077
218,12	8970,000
218,34	2,099
218,55	145,703
218,77	25,291
218,99	114,559
219,20	7,179
219,42	79,619
219,63	99,723
219,85	38,655
220,06	159,346
220,28	99,274
220,50	103,578
220,71	74,563
220,93	493,019
221,14	-900,300
221,36	85,985
221,58	-14,782
221,79	-34,794
222,01	318,362
222,22	124,539
222,44	-565,955
222,65	125,410
222,87	-383,706
223,09	102,576
223,30	58,671
223,52	57,102
223,73	213,745
223,95	-29,113
224,16	126,247
224,38	46,991
224,60	13,320
224,81	16,775
225,03	146,729
225,24	117,321
225,46	-76,196
225,67	30,117
225,89	48,338
226,10	233,223
226,32	-129,360
226,54	52,273
226,75	70,218
226,97	92,443
227,18	19,901
227,40	-45,529
227,61	26,554
227,83	-14,441
228,04	23,178
228,26	31,034
228,47	49,708
228,69	-26,082
228,91	18,798
229,12	51,671
229,34	64,056
229,55	12,809
229,77	-16,406
229,98	-5,326
230,20	10,371
230,41	30,397
230,63	39,514
230,84	30,230
231,06	18,897
231,27	9,575
231,49	6,761
231,71	23,530
231,92	38,521
232,14	-0,738
232,35	25,474
232,57	61,281
232,78	6,281
233,00	-5,766
233,21	12,689
233,43	15,737
233,64	13,478
233,86	37,125
234,07	-1,889
234,29	24,886
234,50	2,812
234,72	16,097
234,93	-10,879
235,15	20,844
235,36	23,189
235,58	1,964
235,79	13,478
236,01	18,430
236,22	-4,149
236,44	20,688
236,65	20,337
236,87	12,358
237,08	17,150
237,30	-13,979
237,51	14,634
237,73	-12,839
237,94	-6,672
238,16	10,093
238,37	0,527
238,59	15,867
238,80	13,271
239,02	5,917
239,23	10,833
239,45	-15,138
239,66	8,329
239,88	10,191
240,09	16,530
240,31	-11,524
240,52	9,104
240,74	10,059
240,95	6,280
241,17	-0,979
241,38	13,409
241,60	7,215
241,81	18,919
242,03	7,325
242,24	2,257
242,46	8,851
242,67	3,692
242,89	8,503
243,10	14,517
243,32	5,601
243,53	4,141
243,75	3,236
243,96	-3,415
244,18	7,645
244,39	-0,438
244,60	5,045
244,82	2,120
245,03	7,310
245,25	3,535
245,46	9,449
245,68	3,345
245,89	2,896
246,11	4,569
246,32	5,039
246,54	-0,571
246,75	5,451
246,97	0,411
247,18	13,191
247,39	-0,503
247,61	-4,225
247,82	3,059
248,04	6,549
248,25	5,526
248,47	3,286
248,68	2,325
248,90	0,240
249,11	8,767
249,33	5,480
249,54	3,071
249,75	7,893
249,97	4,251
250,18	4,384
250,40	12,136
250,61	-0,055
250,83	6,107
251,04	-0,690
251,25	6,327
251,47	-0,099
251,68	10,709
251,90	7,465
252,11	9,068
252,33	5,686
252,54	3,745
252,76	3,642
252,97	0,525
253,18	0,245
253,40	3,221
253,61	1,094
253,83	7,983
254,04	5,964
254,25	8,053
254,47	3,920
254,68	3,973
254,90	2,709
255,11	7,181
255,33	2,970
255,54	-2,204
255,75	3,402
255,97	1,684
256,18	0,442
256,40	1,704
256,61	5,581
256,82	-2,565
257,04	4,946
257,25	-1,642
257,47	2,306
257,68	1,684
257,89	4,040
258,11	2,724
258,32	3,179
258,54	4,400
258,75	3,119
258,96	5,516
259,18	2,838
259,39	1,204
259,61	7,810
259,82	-0,916
260,03	7,453
260,25	4,453
260,46	-0,078
260,68	2,587
260,89	6,762
261,10	0,406
261,32	2,864
261,53	1,055
261,75	5,555
261,96	-2,909
262,17	5,011
262,39	9,969
262,60	2,768
262,81	2,410
263,03	7,130
263,24	2,603
263,46	-3,443
263,67	4,057
263,88	0,124
264,10	2,618
264,31	0,084
264,52	4,922
264,74	4,812
264,95	-0,113
265,17	2,214
265,38	2,705
265,59	1,305
265,81	1,608
266,02	-3,424
266,23	-0,037
266,45	-3,698
266,66	9,537
266,87	5,840
267,09	1,712
267,30	2,910
267,52	2,472
267,73	3,215
267,94	2,157
268,16	3,098
268,37	4,580
268,58	3,786
268,80	6,075
269,01	2,488
269,22	3,586
269,44	5,638
269,65	6,438
269,86	-2,813
270,08	5,539
270,29	1,213
270,50	7,800
270,72	6,110
270,93	3,707
271,14	2,960
271,36	5,797
271,57	6,525
271,78	1,510
272,00	6,739
272,21	6,326
272,42	5,412
272,64	3,220
272,85	1,761
273,06	3,404
273,28	2,603
273,49	4,379
273,70	4,226
273,92	2,954
274,13	5,955
274,34	1,829
274,56	4,207
274,77	1,105
274,98	-2,640
275,20	3,139
275,41	6,260
275,62	6,258
275,84	1,089
276,05	5,060
276,26	3,492
276,47	0,602
276,69	2,198
276,90	2,959
277,11	1,427
277,33	0,938
277,54	4,178
277,75	2,749
277,97	2,574
278,18	4,267
278,39	1,020
278,61	0,071
278,82	2,831
279,03	4,417
279,24	4,662
279,46	0,367
279,67	6,333
279,88	5,183
280,10	2,446
280,31	2,819
280,52	3,920
280,73	1,254
280,95	1,878
281,16	3,940
281,37	3,354
281,59	7,791
281,80	4,766
282,01	2,680
282,22	2,774
282,44	3,514
282,65	7,250
282,86	6,226
283,08	1,887
283,29	0,621
283,50	3,695
283,71	4,769
283,93	4,580
284,14	6,701
284,35	4,949
284,56	2,925
284,78	4,099
284,99	2,475
285,20	5,037
285,42	1,399
285,63	3,805
285,84	0,493
286,05	1,735
286,27	4,751
286,48	-0,267
286,69	2,953
286,90	-0,522
287,12	2,209
287,33	2,944
287,54	1,534
287,75	1,831
287,97	3,069
288,18	1,476
288,39	3,272
288,60	2,148
288,82	2,426
289,03	3,692
289,24	3,973
289,45	6,344
289,67	3,235
289,88	2,273
290,09	2,750
290,30	3,928
290,52	1,762
290,73	2,666
290,94	0,496
291,15	3,017
291,37	1,239
291,58	3,070
291,79	2,857
292,00	4,078
292,21	4,401
292,43	-0,107
292,64	3,657
292,85	0,563
293,06	7,169
293,28	0,737
293,49	0,291
293,70	4,022
293,91	3,568
294,12	4,004
294,34	0,367
294,55	3,186
294,76	1,264
294,97	3,085
295,19	-1,073
295,40	4,878
295,61	4,504
295,82	1,753
296,03	2,246
296,25	0,180
296,46	1,816
296,67	3,150
296,88	2,228
297,09	6,487
297,31	2,287
297,52	2,349
297,73	3,216
297,94	1,203
298,15	2,859
298,37	5,690
298,58	4,483
298,79	3,676
299,00	1,917
299,21	1,741
299,43	1,922
299,64	5,396
299,85	6,418
300,06	2,666
300,27	-1,455
300,49	5,222
300,70	0,260
300,91	2,844
301,12	1,691
301,33	4,543
301,54	2,458
301,76	3,223
301,97	1,058
302,18	2,837
302,39	5,805
302,60	3,854
302,82	3,439
303,03	2,795
303,24	2,836
303,45	2,982
303,66	1,872
303,87	3,956
304,09	5,311
304,30	4,958
304,51	2,522
304,72	2,781
304,93	2,347
305,14	4,052
305,36	0,952
305,57	0,146
305,78	3,127
305,99	1,622
306,20	2,537
306,41	1,197
306,62	2,389
306,84	3,818
307,05	1,469
307,26	2,439
307,47	3,782
307,68	1,944
307,89	2,736
308,11	2,525
308,32	-0,394
308,53	1,689
308,74	0,813
308,95	2,607
309,16	1,885
309,37	3,693
309,59	-0,222
309,80	3,984
310,01	5,211
310,22	4,912
310,43	3,017
310,64	2,818
310,85	3,140
311,06	2,746
311,28	2,511
311,49	1,550
311,70	5,779
311,91	1,203
312,12	2,346
312,33	3,443
312,54	3,294
312,75	1,570
312,97	3,859
313,18	4,455
313,39	4,383
313,60	2,447
313,81	2,643
314,02	1,133
314,23	5,073
314,44	2,989
314,65	2,902
314,87	1,932
315,08	1,813
315,29	6,371
315,50	3,783
315,71	3,071
315,92	5,574
316,13	5,700
316,34	4,105
316,55	1,736
316,77	1,313
316,98	2,362
317,19	2,901
317,40	6,536
317,61	3,965
317,82	3,140
318,03	2,389
318,24	3,157
318,45	2,397
318,66	4,035
318,87	1,662
319,09	4,468
319,30	2,234
319,51	3,245
319,72	1,982
319,93	3,567
320,14	4,564
320,35	4,231
320,56	1,515
320,77	0,920
320,98	5,089
321,19	4,865
321,40	3,753
321,62	3,215
321,83	2,355
322,04	2,476
322,25	3,410
322,46	2,651
322,67	4,244
322,88	2,397
323,09	1,145
323,30	2,520
323,51	1,977
323,72	6,631
323,93	4,464
324,14	2,121
324,35	-1,276
324,56	0,077
324,77	2,594
324,99	2,156
325,20	1,291
325,41	2,184
325,62	3,146
325,83	2,878
326,04	0,952
326,25	3,782
326,46	3,666
326,67	3,423
326,88	4,727
327,09	2,731
327,30	1,748
327,51	3,491
327,72	3,211
327,93	4,845
328,14	-1,286
328,35	1,109
328,56	5,154
328,77	2,578
328,98	6,995
329,19	2,842
329,40	1,129
329,61	4,185
329,82	2,272
330,04	1,319
330,25	-0,367
330,46	3,083
330,67	2,640
330,88	2,506
331,09	3,840
331,30	3,821
331,51	2,568
331,72	2,771
331,93	2,059
332,14	3,189
332,35	4,172
332,56	2,929
332,77	2,683
332,98	2,391
333,19	2,156
333,40	4,919
333,61	1,685
333,82	2,887
334,03	4,164
334,24	2,409
334,45	2,870
334,66	3,935
334,87	6,258
335,08	2,704
335,29	1,114
335,50	0,295
335,71	2,492
335,92	5,027
336,13	3,955
336,34	-1,100
336,55	6,125
336,76	5,148
336,97	2,267
337,18	0,739
337,39	5,095
337,60	2,430
337,81	2,840
338,02	1,781
338,23	1,788
338,44	4,334
338,65	3,398
338,86	3,834
339,07	0,320
339,28	3,458
339,49	2,293
339,70	1,624
339,91	2,190
340,11	4,325
340,32	-0,189
340,53	0,376
340,74	0,883
340,95	4,591
341,16	2,076
341,37	5,000
341,58	1,745
341,79	1,154
342,00	4,534
342,21	2,833
342,42	2,042
342,63	2,562
342,84	-1,669
343,05	3,363
343,26	3,923
343,47	1,921
343,68	-0,168
343,89	3,729
344,10	6,276
344,31	3,257
344,52	3,622
344,73	3,826
344,94	5,660
345,14	2,234
345,35	2,652
345,56	3,344
345,77	6,735
345,98	3,760
346,19	1,368
346,40	1,032
346,61	2,481
346,82	1,803
347,03	1,296
347,24	4,320
347,45	3,109
347,66	6,379
347,87	3,807
348,08	2,464
348,28	1,826
348,49	3,676
348,70	4,202
348,91	1,432
349,12	0,172
349,33	3,028
349,54	2,929
349,75	5,412
349,96	6,091
350,17	3,146
350,38	1,784
350,59	3,912
350,80	4,489
351,00	2,824
351,21	6,700
351,42	2,444
351,63	-0,309
351,84	2,575
352,05	4,428
352,26	1,570
352,47	1,169
352,68	4,473
352,89	6,518
353,09	4,688
353,30	1,024
353,51	5,993
353,72	4,245
353,93	2,690
354,14	2,343
354,35	3,336
354,56	5,604
354,77	5,272
354,98	2,543
355,18	4,967
355,39	3,827
355,60	3,696
355,81	3,815
356,02	2,919
356,23	2,290
356,44	4,079
356,65	4,905
356,85	6,697
357,06	2,473
357,27	4,995
357,48	-0,389
357,69	1,033
357,90	5,007
358,11	3,512
358,32	2,776
358,52	3,142
358,73	1,271
358,94	3,592
359,15	4,785
359,36	5,149
359,57	3,217
359,78	5,236
359,98	4,414
360,19	3,073
360,40	1,822
360,61	2,933
360,82	1,531
361,03	3,371
361,24	2,781
361,44	4,145
361,65	3,331
361,86	3,041
362,07	2,891
362,28	1,966
362,49	1,583
362,70	2,045
362,90	3,748
363,11	2,018
363,32	5,271
363,53	3,931
363,74	5,147
363,95	4,456
364,15	2,240
364,36	6,985
364,57	1,657
364,78	-0,029
364,99	5,510
365,20	5,660
365,40	4,448
365,61	2,459
365,82	4,393
366,03	-0,270
366,24	4,715
366,45	6,180
366,65	2,678
366,86	2,895
367,07	2,620
367,28	3,880
367,49	4,603
367,69	3,179
367,90	0,215
368,11	3,868
368,32	1,228
368,53	2,753
368,73	3,842
368,94	3,721
369,15	0,672
369,36	5,929
369,57	1,267
369,78	1,781
369,98	1,538
370,19	8,469
370,40	3,587
370,61	4,476
370,82	3,679
371,02	-0,216
371,23	6,720
371,44	5,525
371,65	3,779
371,85	6,444
372,06	3,032
372,27	1,633
372,48	4,324
372,69	2,253
372,89	2,347
373,10	0,517
373,31	-0,193
373,52	2,658
373,73	5,762
373,93	3,636
374,14	2,851
374,35	7,755
374,56	5,508
374,76	2,943
374,97	0,439
375,18	0,661
375,39	2,940
375,60	3,537
375,80	4,945
376,01	2,651
376,22	2,137
376,43	3,427
376,63	5,536
376,84	2,221
377,05	2,374
377,26	1,280
377,46	0,946
377,67	3,016
377,88	4,997
378,09	4,786
378,29	1,692
378,50	5,013
378,71	1,912
378,92	3,713
379,12	2,869
379,33	5,690
379,54	3,519
379,75	3,169
379,95	1,585
380,16	4,931
380,37	8,085
380,58	5,434
380,78	4,641
380,99	1,874
381,20	2,514
381,41	4,198
381,61	6,178
381,82	3,499
382,03	1,668
382,24	4,487
382,44	3,612
382,65	-0,060
382,86	1,493
383,06	-0,065
383,27	5,220
383,48	2,365
383,69	3,122
383,89	4,340
384,10	8,731
384,31	5,133
384,51	4,810
384,72	2,233
384,93	4,704
385,14	3,964
385,34	5,584
385,55	1,081
385,76	2,806
385,96	3,438
386,17	2,377
386,38	5,912
386,59	3,811
386,79	3,937
387,00	5,584
387,21	5,108
387,41	6,109
387,62	5,023
387,83	8,726
388,03	8,302
388,24	1,867
388,45	4,736
388,66	7,231
388,86	6,075
389,07	3,758
389,28	9,024
389,48	3,567
389,69	4,773
389,90	3,541
390,10	5,762
390,31	8,052
390,52	3,685
390,72	5,874
390,93	3,415
391,14	2,208
391,34	5,575
391,55	5,176
391,76	5,107
391,96	7,054
392,17	5,788
392,38	8,607
392,58	4,963
392,79	6,344
393,00	8,212
393,20	3,329
393,41	6,646
393,62	4,259
393,82	5,776
394,03	7,077
394,24	2,584
394,44	5,705
394,65	7,562
394,86	6,350
395,06	2,281
395,27	1,887
395,48	5,330
395,68	7,713
395,89	9,504
396,10	5,851
396,30	5,099
396,51	6,323
396,72	6,804
396,92	6,985
397,13	7,274
397,34	5,331
397,54	5,652
397,75	6,438
397,95	6,325
398,16	8,499
398,37	5,767
398,57	8,351
398,78	11,271
398,99	9,525
399,19	7,474
399,40	8,970
399,60	5,703
399,81	8,441
400,02	10,008
400,22	7,786
400,43	8,932
400,64	8,390
400,84	6,817
401,05	8,726
401,25	11,805
401,46	11,429
401,67	9,935
401,87	11,220
402,08	9,243
402,29	9,811
402,49	12,797
402,70	12,506
402,90	10,501
403,11	9,014
403,32	16,268
403,52	10,460
403,73	15,361
403,93	13,440
404,14	15,789
404,35	12,217
404,55	10,870
404,76	10,899
404,96	12,712
405,17	14,484
405,38	13,424
405,58	11,035
405,79	12,061
405,99	11,496
406,20	14,165
406,40	9,700
406,61	15,078
406,82	10,786
407,02	16,745
407,23	15,826
407,43	11,390
407,64	13,569
407,85	15,689
408,05	8,748
408,26	18,140
408,46	17,167
408,67	13,054
408,87	13,508
409,08	16,944
409,29	13,078
409,49	21,408
409,70	13,809
409,90	18,010
410,11	16,923
410,31	20,348
410,52	17,267
410,72	16,838
410,93	18,416
411,14	14,871
411,34	17,392
411,55	17,150
411,75	19,841
411,96	18,096
412,16	21,221
412,37	19,427
412,57	19,260
412,78	21,192
412,99	18,982
413,19	21,131
413,40	20,865
413,60	17,911
413,81	20,135
414,01	19,755
414,22	19,302
414,42	15,538
414,63	16,272
414,83	21,842
415,04	25,801
415,24	20,963
415,45	20,258
415,65	20,912
415,86	15,219
416,07	19,244
416,27	21,539
416,48	17,925
416,68	23,123
416,89	21,226
417,09	19,468
417,30	23,240
417,50	29,889
417,71	21,206
417,91	19,379
418,12	22,270
418,32	19,560
418,53	24,960
418,73	21,725
418,94	20,904
419,14	22,928
419,35	21,431
419,55	25,306
419,76	23,540
419,96	19,733
420,17	21,534
420,37	24,887
420,58	22,803
420,78	23,975
420,99	25,111
421,19	25,821
421,40	23,799
421,60	27,161
421,81	24,641
422,01	23,596
422,22	24,913
422,42	24,930
422,63	28,423
422,83	26,990
423,04	22,243
423,24	27,716
423,45	24,857
423,65	26,253
423,86	25,870
424,06	24,810
424,27	23,492
424,47	23,119
424,67	24,032
424,88	25,446
425,08	31,383
425,29	30,859
425,49	29,566
425,70	19,724
425,90	27,738
426,11	26,340
426,31	26,993
426,52	25,190
426,72	26,832
426,93	26,948
427,13	28,504
427,33	26,713
427,54	26,305
427,74	26,753
427,95	27,832
428,15	24,710
428,36	28,237
428,56	26,726
428,77	27,504
428,97	24,842
429,18	27,713
429,38	24,163
429,58	27,256
429,79	29,003
429,99	29,418
430,20	22,654
430,40	28,490
430,61	25,693
430,81	29,445
431,01	26,678
431,22	31,628
431,42	30,751
431,63	27,318
431,83	28,325
432,04	29,614
432,24	32,060
432,44	24,428
432,65	27,925
432,85	26,739
433,06	27,236
433,26	26,155
433,47	27,642
433,67	26,403
433,87	26,488
434,08	23,832
434,28	27,146
434,49	29,357
434,69	25,734
434,89	25,719
435,10	25,837
435,30	27,906
435,51	23,484
435,71	28,114
435,91	27,160
436,12	24,737
436,32	26,951
436,53	25,680
436,73	28,675
436,93	30,452
437,14	31,165
437,34	29,518
437,55	27,294
437,75	24,445
437,95	30,646
438,16	29,490
438,36	28,579
438,57	28,720
438,77	23,675
438,97	30,068
439,18	33,372
439,38	28,022
439,58	25,924
439,79	28,574
439,99	29,243
440,20	28,673
440,40	26,557
440,60	26,778
440,81	29,624
441,01	28,749
441,21	29,007
441,42	33,336
441,62	27,649
441,83	30,597
442,03	33,055
442,23	30,211
442,44	29,885
442,64	28,527
442,84	26,971
443,05	28,543
443,25	28,730
443,45	29,877
443,66	30,704
443,86	32,672
444,06	27,900
444,27	29,612
444,47	28,665
444,67	29,265
444,88	30,489
445,08	29,374
445,28	31,279
445,49	26,432
445,69	24,609
445,90	28,037
446,10	29,380
446,30	31,159
446,51	29,209
446,71	29,392
446,91	33,748
447,12	34,454
447,32	29,995
447,52	29,741
447,72	26,911
447,93	28,964
448,13	26,747
448,33	32,504
448,54	33,362
448,74	26,099
448,94	31,259
449,15	34,589
449,35	28,157
449,55	32,490
449,76	34,807
449,96	30,825
450,16	31,183
450,37	27,131
450,57	28,967
450,77	25,867
450,98	32,439
451,18	32,672
451,38	30,060
451,58	30,085
451,79	31,955
451,99	32,074
452,19	31,124
452,40	29,107
452,60	27,290
452,80	29,991
453,00	31,692
453,21	29,645
453,41	30,416
453,61	31,422
453,82	30,380
454,02	24,083
454,22	32,513
454,42	35,272
