Fichero De Datos De SpectraSuite
++++++++++++++++++++++++++++++++++++
Fecha: Wed Apr 22 10:23:16 CEST 2009
Usuario: evoflor
Presente Oscuro Del Espectro: Sí
La Referencia de Presente Del Espectro De: Sí
Muestreados de los componentes de Número de espectros: 1
Espectrómetros: USB4F02353
Tiempo de integración (usec): 500000 (USB4F02353)
Promedio de Espectros Hechos un: 5 (USB4F02353)
El Alisar Del Furgón: 0 (USB4F02353)
Párrafo de de Corregir del la del del de Eléctrica del obscuridad: Sí (USB4F02353)
Estrobo/Lámpara Permitido: No (USB4F02353)
Correct for Detector Non-linearity: No (USB4F02353)
Párrafo de de Corregir del la del del de Externa del luz: No (USB4F02353)
Procesado del espectro de Número de pixeles en: 3648
>>>>> Comienza Data<<<<< Espectral Procesado Del EL
177,79	86,482
178,00	86,482
178,22	86,482
178,44	148,462
178,66	102,626
178,88	41,075
179,09	-122,511
179,31	101,722
179,53	236,811
179,75	146,355
179,96	682,672
180,18	11,108
180,40	154,745
180,62	198,117
180,83	-145,083
181,05	-779,146
181,27	-64790,000
181,49	0,022
181,70	-529,654
181,92	438,528
182,14	173,464
182,36	49,924
182,58	297,100
182,79	76,295
183,01	90,628
183,23	45,386
183,45	-113,508
183,66	-43,761
183,88	-153,588
184,10	-1341,636
184,32	-6,708
184,53	55,910
184,75	-3,202
184,97	60,755
185,18	-224,981
185,40	-116,779
185,62	83,561
185,84	-78,624
186,05	27,170
186,27	-105,413
186,49	-1523,462
186,71	97,281
186,92	104,462
187,14	50,591
187,36	67,511
187,58	100,096
187,79	-13,663
188,01	119,614
188,23	-53,665
188,45	115,772
188,66	228,973
188,88	-932,545
189,10	-593,900
189,31	62,986
189,53	188,850
189,75	137,023
189,97	-180,038
190,18	-61,845
190,40	719,941
190,62	-104,257
190,83	-57,763
191,05	78,680
191,27	203,114
191,49	302,946
191,70	-64,856
191,92	-114,322
192,14	20,790
192,35	322,255
192,57	-1671,714
192,79	-30,857
193,01	129,036
193,22	33,652
193,44	19,983
193,66	69,122
193,87	107,901
194,09	46,039
194,31	66,024
194,53	12,517
194,74	27,565
194,96	3,440
195,18	139,704
195,39	-28,470
195,61	-5,771
195,83	-86,065
196,04	139,607
196,26	-348,191
196,48	2,257
196,70	-26,859
196,91	-98,509
197,13	173,139
197,35	-160,894
197,56	245,170
197,78	362,612
198,00	553,776
198,21	-118,010
198,43	418,663
198,65	134,903
198,86	184,496
199,08	-50,197
199,30	147,551
199,51	143,681
199,73	146,348
199,95	204,926
200,16	581,500
200,38	125,850
200,60	28,231
200,81	104,047
201,03	114,918
201,25	-683,900
201,46	110,624
201,68	94,995
201,90	204,318
202,11	-463,702
202,33	111,472
202,55	472,375
202,76	126,670
202,98	-150,557
203,20	-311,490
203,41	-397,842
203,63	-16,533
203,85	-80990,000
204,06	-22,993
204,28	2,193
204,50	49,161
204,71	122,420
204,93	-144,080
205,15	-62,380
205,36	-18,910
205,58	67,351
205,80	-85,313
206,01	43,540
206,23	76,059
206,45	166,529
206,66	57,817
206,88	-28,723
207,10	116,568
207,31	97,735
207,53	-92,600
207,75	-38,768
207,96	611,119
208,18	-121,314
208,39	-1,044
208,61	2571,143
208,83	-142,398
209,04	69,358
209,26	240,599
209,48	230,795
209,69	60,952
209,91	297,939
210,13	68,710
210,34	-2,203
210,56	66,972
210,77	-963,701
210,99	-90,278
211,21	899,412
211,42	10,526
211,64	41,646
211,86	150,229
212,07	96,228
212,29	164,605
212,50	90,082
212,72	79,577
212,94	8,660
213,15	61,112
213,37	44,475
213,58	107,783
213,80	64,643
214,02	4022,941
214,23	195,420
214,45	-150,525
214,67	109,878
214,88	63,456
215,10	-155,264
215,31	-7,882
215,53	-67,523
215,75	89,200
215,96	614,845
216,18	-215,634
216,39	110,139
216,61	135,568
216,83	220,937
217,04	829,101
217,26	81,274
217,47	106,552
217,69	234,249
217,91	-53,325
218,12	-17990,000
218,34	127,970
218,55	155,146
218,77	130,031
218,99	136,162
219,20	27,687
219,42	244,192
219,63	80,618
219,85	-11,221
220,06	-439,654
220,28	17,804
220,50	-14,804
220,71	117,324
220,93	-322,830
221,14	-215,900
221,36	-43,002
221,58	112,927
221,79	-106,804
222,01	511,983
222,22	-313,882
222,44	-677,640
222,65	68,996
222,87	201,329
223,09	134,869
223,30	13,284
223,52	17,551
223,73	89,132
223,95	76,042
224,16	-22,289
224,38	304,953
224,60	37,784
224,81	41,740
225,03	63,425
225,24	-3,968
225,46	-142,043
225,67	23,787
225,89	-14,149
226,10	390,331
226,32	-57,680
226,54	-37,539
226,75	17,534
226,97	29,950
227,18	67,852
227,40	60,729
227,61	54,724
227,83	-44,544
228,04	69,452
228,26	-10,579
228,47	39,434
228,69	93,579
228,91	8,928
229,12	23,235
229,34	49,709
229,55	8,139
229,77	26,343
229,98	-1,462
230,20	35,073
230,41	7,737
230,63	-16,331
230,84	-64,727
231,06	8,835
231,27	-1,475
231,49	32,830
231,71	34,395
231,92	33,857
232,14	-5,477
232,35	62,973
232,57	64,381
232,78	-6,871
233,00	47,307
233,21	-5,357
233,43	10,319
233,64	23,944
233,86	12,369
234,07	-19,521
234,29	15,322
234,50	7,242
234,72	18,283
234,93	-0,413
235,15	20,654
235,36	22,188
235,58	-3,525
235,79	15,499
236,01	19,125
236,22	1,436
236,44	10,000
236,65	-0,330
236,87	8,631
237,08	6,857
237,30	10,266
237,51	9,380
237,73	-21,589
237,94	3,604
238,16	5,763
238,37	-3,527
238,59	6,720
238,80	3,315
239,02	11,618
239,23	1,824
239,45	6,593
239,66	13,875
239,88	13,144
240,09	20,775
240,31	-12,383
240,52	2,298
240,74	10,487
240,95	0,103
241,17	6,877
241,38	4,532
241,60	2,086
241,81	16,988
242,03	-0,835
242,24	6,280
242,46	8,476
242,67	5,808
242,89	2,220
243,10	17,272
243,32	10,435
243,53	1,302
243,75	2,351
243,96	0,668
244,18	0,873
244,39	0,293
244,60	0,489
244,82	2,390
245,03	11,343
245,25	3,532
245,46	8,077
245,68	-1,638
245,89	4,516
246,11	0,134
246,32	6,892
246,54	-0,637
246,75	8,978
246,97	1,461
247,18	13,309
247,39	-0,380
247,61	1,569
247,82	8,734
248,04	3,950
248,25	2,818
248,47	5,991
248,68	4,203
248,90	2,554
249,11	6,758
249,33	6,511
249,54	2,343
249,75	7,065
249,97	3,717
250,18	4,488
250,40	12,283
250,61	-0,400
250,83	1,564
251,04	-0,865
251,25	-0,273
251,47	-1,812
251,68	4,377
251,90	5,463
252,11	2,324
252,33	3,227
252,54	6,785
252,76	0,645
252,97	3,571
253,18	-0,584
253,40	5,756
253,61	0,237
253,83	5,893
254,04	6,188
254,25	5,246
254,47	1,731
254,68	5,163
254,90	2,130
255,11	1,581
255,33	8,630
255,54	2,815
255,75	2,684
255,97	1,195
256,18	-3,788
256,40	2,623
256,61	2,489
256,82	1,695
257,04	4,944
257,25	1,691
257,47	1,728
257,68	4,794
257,89	2,344
258,11	5,607
258,32	1,212
258,54	6,996
258,75	2,696
258,96	3,950
259,18	5,927
259,39	1,073
259,61	-1,211
259,82	2,669
260,03	9,275
260,25	0,364
260,46	-3,054
260,68	0,667
260,89	3,840
261,10	5,182
261,32	3,064
261,53	3,591
261,75	4,994
261,96	0,831
262,17	4,505
262,39	5,683
262,60	-0,692
262,81	-3,198
263,03	4,619
263,24	-0,077
263,46	3,362
263,67	3,022
263,88	-1,880
264,10	-0,380
264,31	-2,199
264,52	7,229
264,74	3,436
264,95	3,983
265,17	2,449
265,38	5,248
265,59	4,371
265,81	3,735
266,02	-0,518
266,23	0,076
266,45	4,508
266,66	4,393
266,87	6,430
267,09	4,614
267,30	9,881
267,52	3,625
267,73	-0,000
267,94	6,320
268,16	2,350
268,37	2,784
268,58	2,671
268,80	1,826
269,01	0,612
269,22	4,682
269,44	4,000
269,65	4,866
269,86	-0,114
270,08	5,142
270,29	2,271
270,50	4,715
270,72	3,054
270,93	0,075
271,14	-1,060
271,36	1,027
271,57	-0,453
271,78	3,696
272,00	5,071
272,21	4,035
272,42	4,757
272,64	3,978
272,85	2,126
273,06	0,680
273,28	6,070
273,49	4,377
273,70	4,153
273,92	5,343
274,13	4,213
274,34	7,203
274,56	4,278
274,77	1,317
274,98	-0,566
275,20	2,674
275,41	5,364
275,62	6,708
275,84	3,824
276,05	5,265
276,26	1,586
276,47	1,945
276,69	5,689
276,90	0,249
277,11	1,739
277,33	6,521
277,54	3,098
277,75	3,435
277,97	2,435
278,18	3,679
278,39	0,843
278,61	4,713
278,82	2,284
279,03	3,600
279,24	2,835
279,46	0,897
279,67	4,954
279,88	3,499
280,10	2,180
280,31	0,583
280,52	3,729
280,73	2,867
280,95	1,541
281,16	7,274
281,37	4,470
281,59	2,941
281,80	5,637
282,01	5,358
282,22	4,797
282,44	-1,456
282,65	4,906
282,86	5,608
283,08	0,639
283,29	6,512
283,50	4,432
283,71	3,087
283,93	3,604
284,14	7,773
284,35	0,157
284,56	4,759
284,78	2,660
284,99	3,108
285,20	4,112
285,42	2,188
285,63	2,575
285,84	0,707
286,05	1,217
286,27	3,405
286,48	0,148
286,69	-1,140
286,90	1,801
287,12	2,809
287,33	1,641
287,54	0,752
287,75	4,191
287,97	3,848
288,18	2,255
288,39	-0,029
288,60	1,259
288,82	1,184
289,03	0,860
289,24	3,109
289,45	6,535
289,67	2,357
289,88	2,669
290,09	1,502
290,30	2,600
290,52	2,708
290,73	2,395
290,94	-0,385
291,15	1,562
291,37	4,602
291,58	-0,166
291,79	2,775
292,00	2,531
292,21	3,326
292,43	-1,513
292,64	3,216
292,85	-1,152
293,06	6,083
293,28	2,418
293,49	0,052
293,70	4,278
293,91	2,714
294,12	3,280
294,34	2,821
294,55	2,282
294,76	2,106
294,97	2,289
295,19	3,704
295,40	1,683
295,61	3,332
295,82	2,474
296,03	2,576
296,25	1,940
296,46	1,636
296,67	2,293
296,88	0,557
297,09	4,840
297,31	3,632
297,52	3,231
297,73	3,093
297,94	3,582
298,15	2,957
298,37	3,205
298,58	4,206
298,79	6,709
299,00	2,142
299,21	0,857
299,43	1,215
299,64	3,937
299,85	4,408
300,06	3,396
300,27	2,809
300,49	4,782
300,70	0,776
300,91	1,838
301,12	1,988
301,33	3,248
301,54	1,812
301,76	2,001
301,97	2,212
302,18	1,890
302,39	5,219
302,60	4,093
302,82	2,873
303,03	3,951
303,24	2,194
303,45	2,307
303,66	2,694
303,87	3,554
304,09	4,114
304,30	3,669
304,51	1,416
304,72	3,136
304,93	1,975
305,14	5,076
305,36	-0,854
305,57	2,596
305,78	3,174
305,99	3,079
306,20	4,171
306,41	2,221
306,62	3,035
306,84	4,262
307,05	2,398
307,26	1,586
307,47	7,071
307,68	2,697
307,89	1,856
308,11	2,478
308,32	-0,050
308,53	1,855
308,74	3,520
308,95	3,167
309,16	2,638
309,37	4,095
309,59	1,017
309,80	4,750
310,01	2,267
310,22	2,490
310,43	1,084
310,64	2,650
310,85	2,701
311,06	1,681
311,28	3,847
311,49	4,309
311,70	4,715
311,91	-0,433
312,12	2,369
312,33	4,302
312,54	1,050
312,75	0,048
312,97	5,145
313,18	4,236
313,39	2,556
313,60	2,638
313,81	3,611
314,02	3,299
314,23	3,282
314,44	1,614
314,65	0,991
314,87	1,354
315,08	2,969
315,29	5,457
315,50	4,030
315,71	2,494
315,92	4,502
316,13	3,409
316,34	4,418
316,55	2,101
316,77	1,362
316,98	1,118
317,19	1,957
317,40	4,160
317,61	3,838
317,82	2,660
318,03	1,705
318,24	1,728
318,45	4,962
318,66	1,749
318,87	2,516
319,09	5,047
319,30	2,456
319,51	4,768
319,72	3,219
319,93	5,985
320,14	3,300
320,35	3,896
320,56	2,557
320,77	-0,460
320,98	7,454
321,19	5,455
321,40	3,312
321,62	3,240
321,83	1,745
322,04	4,816
322,25	1,154
322,46	7,711
322,67	4,596
322,88	5,340
323,09	2,538
323,30	3,332
323,51	4,636
323,72	4,815
323,93	-0,026
324,14	2,353
324,35	-0,077
324,56	1,264
324,77	3,034
324,99	1,714
325,20	1,822
325,41	3,868
325,62	2,565
325,83	3,626
326,04	2,640
326,25	3,254
326,46	2,655
326,67	4,055
326,88	1,848
327,09	3,161
327,30	4,786
327,51	3,002
327,72	3,977
327,93	5,842
328,14	0,128
328,35	1,562
328,56	3,301
328,77	2,860
328,98	4,460
329,19	1,199
329,40	4,873
329,61	1,739
329,82	1,187
330,04	1,739
330,25	0,920
330,46	2,197
330,67	3,130
330,88	0,626
331,09	3,839
331,30	-0,743
331,51	3,123
331,72	1,765
331,93	2,533
332,14	-0,155
332,35	7,248
332,56	1,410
332,77	5,969
332,98	1,234
333,19	1,156
333,40	1,692
333,61	2,052
333,82	3,968
334,03	2,589
334,24	4,345
334,45	0,804
334,66	6,004
334,87	2,943
335,08	0,636
335,29	1,166
335,50	0,749
335,71	1,756
335,92	4,497
336,13	4,530
336,34	0,402
336,55	2,916
336,76	4,165
336,97	2,995
337,18	0,369
337,39	3,631
337,60	2,350
337,81	3,583
338,02	2,574
338,23	1,299
338,44	6,381
338,65	4,609
338,86	5,307
339,07	-1,225
339,28	3,012
339,49	1,649
339,70	-2,435
339,91	2,084
340,11	2,417
340,32	1,926
340,53	2,117
340,74	1,684
340,95	2,076
341,16	2,129
341,37	0,027
341,58	1,910
341,79	-0,357
342,00	0,868
342,21	3,331
342,42	2,721
342,63	3,024
342,84	-1,642
343,05	3,552
343,26	4,909
343,47	1,044
343,68	0,705
343,89	3,481
344,10	5,041
344,31	4,897
344,52	1,170
344,73	2,688
344,94	4,494
345,14	2,922
345,35	4,652
345,56	1,961
345,77	3,255
345,98	2,935
346,19	5,297
346,40	2,034
346,61	2,312
346,82	1,577
347,03	0,788
347,24	3,449
347,45	0,728
347,66	4,797
347,87	2,789
348,08	4,246
348,28	3,279
348,49	5,937
348,70	3,261
348,91	2,375
349,12	2,595
349,33	12,718
349,54	1,314
349,75	1,317
349,96	2,048
350,17	3,402
350,38	1,754
350,59	3,650
350,80	1,819
351,00	3,427
351,21	7,796
351,42	1,647
351,63	3,380
351,84	2,815
352,05	4,856
352,26	2,746
352,47	3,182
352,68	2,506
352,89	5,324
353,09	6,550
353,30	2,738
353,51	3,385
353,72	3,975
353,93	4,120
354,14	0,524
354,35	2,133
354,56	4,990
354,77	3,168
354,98	-0,090
355,18	3,614
355,39	2,805
355,60	0,231
355,81	1,173
356,02	1,805
356,23	2,230
356,44	0,060
356,65	5,861
356,85	6,900
357,06	3,901
357,27	3,539
357,48	4,168
357,69	5,128
357,90	3,550
358,11	4,585
358,32	2,774
358,52	4,050
358,73	3,220
358,94	2,842
359,15	4,182
359,36	5,176
359,57	2,670
359,78	3,317
359,98	2,972
360,19	-1,175
360,40	0,969
360,61	3,909
360,82	1,989
361,03	4,995
361,24	1,479
361,44	3,388
361,65	2,028
361,86	1,719
362,07	2,551
362,28	2,471
362,49	0,669
362,70	3,791
362,90	3,775
363,11	3,026
363,32	2,311
363,53	6,422
363,74	4,941
363,95	6,059
364,15	4,036
364,36	5,552
364,57	4,097
364,78	3,358
364,99	5,039
365,20	3,703
365,40	3,557
365,61	1,070
365,82	5,994
366,03	1,082
366,24	5,581
366,45	0,812
366,65	0,794
366,86	2,772
367,07	4,455
367,28	3,120
367,49	4,899
367,69	3,649
367,90	4,736
368,11	1,948
368,32	0,881
368,53	2,751
368,73	5,629
368,94	3,660
369,15	0,091
369,36	4,670
369,57	3,387
369,78	0,468
369,98	4,882
370,19	3,633
370,40	1,226
370,61	1,367
370,82	1,489
371,02	2,206
371,23	6,516
371,44	5,145
371,65	1,998
371,85	7,881
372,06	0,656
372,27	0,954
372,48	2,039
372,69	1,970
372,89	2,900
373,10	2,612
373,31	1,780
373,52	4,801
373,73	7,711
373,93	3,421
374,14	0,971
374,35	5,830
374,56	3,133
374,76	3,782
374,97	0,594
375,18	3,205
375,39	4,301
375,60	4,474
375,80	4,229
376,01	1,078
376,22	3,683
376,43	0,566
376,63	1,581
376,84	0,719
377,05	5,948
377,26	1,471
377,46	0,409
377,67	1,924
377,88	5,671
378,09	4,478
378,29	-0,358
378,50	5,634
378,71	2,760
378,92	4,254
379,12	0,126
379,33	-0,095
379,54	4,514
379,75	2,290
379,95	1,429
380,16	2,633
380,37	4,315
380,58	3,403
380,78	1,713
380,99	-0,699
381,20	3,995
381,41	4,515
381,61	6,207
381,82	2,599
382,03	0,098
382,24	2,339
382,44	4,086
382,65	1,868
382,86	1,359
383,06	-0,232
383,27	4,660
383,48	4,793
383,69	5,134
383,89	5,213
384,10	3,578
384,31	3,421
384,51	4,644
384,72	5,164
384,93	2,466
385,14	1,981
385,34	6,095
385,55	0,916
385,76	0,834
385,96	3,711
386,17	3,333
386,38	4,336
386,59	2,768
386,79	0,787
387,00	4,636
387,21	3,438
387,41	5,307
387,62	0,990
387,83	3,456
388,03	2,647
388,24	1,699
388,45	4,455
388,66	3,463
388,86	3,221
389,07	1,421
389,28	3,302
389,48	5,012
389,69	1,699
389,90	2,818
390,10	7,702
390,31	5,849
390,52	-3,552
390,72	1,990
390,93	0,530
391,14	-0,487
391,34	3,715
391,55	3,563
391,76	4,850
391,96	5,274
392,17	5,339
392,38	6,407
392,58	3,060
392,79	2,640
393,00	2,670
393,20	2,714
393,41	1,480
393,62	-0,000
393,82	3,783
394,03	1,068
394,24	4,511
394,44	1,624
394,65	2,399
394,86	2,771
395,06	2,782
395,27	0,202
395,48	2,158
395,68	3,052
395,89	3,507
396,10	2,275
396,30	4,528
396,51	2,824
396,72	2,511
396,92	-0,709
397,13	4,286
397,34	-0,300
397,54	4,978
397,75	2,092
397,95	3,944
398,16	2,778
398,37	3,541
398,57	1,932
398,78	7,492
398,99	4,628
399,19	2,261
399,40	4,870
399,60	1,600
399,81	5,454
400,02	2,527
400,22	5,462
400,43	5,810
400,64	4,594
400,84	5,745
401,05	4,379
401,25	3,284
401,46	5,866
401,67	4,186
401,87	2,821
402,08	4,571
402,29	0,306
402,49	4,321
402,70	7,021
402,90	2,576
403,11	2,659
403,32	5,377
403,52	6,649
403,73	3,658
403,93	6,896
404,14	8,573
404,35	6,966
404,55	3,669
404,76	3,872
404,96	8,395
405,17	5,275
405,38	4,808
405,58	3,736
405,79	5,083
405,99	3,049
406,20	2,429
406,40	1,726
406,61	6,639
406,82	4,103
407,02	6,612
407,23	5,017
407,43	1,265
407,64	3,654
407,85	5,947
408,05	3,337
408,26	7,517
408,46	4,471
408,67	5,497
408,87	6,236
409,08	5,812
409,29	4,680
409,49	8,569
409,70	7,039
409,90	6,792
410,11	3,519
410,31	10,071
410,52	7,255
410,72	7,075
410,93	6,414
411,14	7,726
411,34	5,844
411,55	10,922
411,75	9,936
411,96	8,601
412,16	9,094
412,37	3,787
412,57	8,622
412,78	3,484
412,99	9,163
413,19	10,360
413,40	10,504
413,60	5,025
413,81	6,594
414,01	7,500
414,22	8,063
414,42	9,344
414,63	8,494
414,83	12,079
415,04	11,107
415,24	12,495
415,45	8,066
415,65	5,686
415,86	7,647
416,07	9,764
416,27	7,397
416,48	10,953
416,68	12,706
416,89	10,777
417,09	12,681
417,30	10,766
417,50	11,368
417,71	12,810
417,91	13,773
418,12	9,033
418,32	11,771
418,53	13,839
418,73	13,253
418,94	11,325
419,14	13,385
419,35	7,723
419,55	13,724
419,76	10,245
419,96	12,863
420,17	11,318
420,37	14,215
420,58	13,902
420,78	11,059
420,99	14,454
421,19	13,881
421,40	14,438
421,60	15,288
421,81	15,374
422,01	12,123
422,22	13,835
422,42	15,166
422,63	15,175
422,83	13,668
423,04	18,035
423,24	17,494
423,45	13,478
423,65	19,110
423,86	17,532
424,06	19,462
424,27	15,735
424,47	14,989
424,67	16,347
424,88	17,470
425,08	17,861
425,29	21,001
425,49	16,051
425,70	12,621
425,90	18,466
426,11	18,793
426,31	17,838
426,52	18,820
426,72	17,184
426,93	20,728
427,13	20,270
427,33	20,461
427,54	21,022
427,74	22,281
427,95	19,211
428,15	15,451
428,36	23,160
428,56	20,815
428,77	20,312
428,97	22,136
429,18	20,436
429,38	17,611
429,58	23,586
429,79	18,561
429,99	25,338
430,20	18,405
430,40	24,786
430,61	22,602
430,81	19,709
431,01	21,210
431,22	19,560
431,42	23,258
431,63	21,118
431,83	25,888
432,04	22,015
432,24	24,895
432,44	23,366
432,65	19,216
432,85	23,263
433,06	25,784
433,26	21,021
433,47	21,494
433,67	22,956
433,87	18,224
434,08	19,673
434,28	22,764
434,49	22,535
434,69	25,342
434,89	22,531
435,10	23,057
435,30	23,102
435,51	19,499
435,71	23,063
435,91	21,581
436,12	24,255
436,32	21,720
436,53	23,826
436,73	21,399
436,93	20,254
437,14	25,051
437,34	23,124
437,55	25,479
437,75	23,077
437,95	23,665
438,16	25,891
438,36	22,318
438,57	26,969
438,77	22,731
438,97	26,508
439,18	30,943
439,38	27,773
439,58	27,213
439,79	26,818
439,99	26,757
440,20	26,218
440,40	30,194
440,60	30,718
440,81	30,945
441,01	31,637
441,21	26,044
441,42	24,197
441,62	27,018
441,83	32,614
442,03	27,883
442,23	27,110
442,44	27,277
442,64	24,890
442,84	24,670
443,05	26,700
443,25	26,123
443,45	26,293
443,66	26,511
443,86	25,680
444,06	28,739
444,27	24,043
444,47	26,575
444,67	21,286
444,88	26,885
445,08	25,470
445,28	29,208
445,49	27,776
445,69	21,990
445,90	29,079
446,10	26,102
446,30	31,821
446,51	29,243
446,71	31,704
446,91	30,580
447,12	29,551
447,32	27,795
447,52	31,700
447,72	31,469
447,93	31,765
448,13	26,858
448,33	33,109
448,54	29,529
448,74	29,214
448,94	31,723
449,15	30,467
449,35	26,468
449,55	26,625
449,76	31,686
449,96	28,849
450,16	30,265
450,37	32,159
450,57	31,391
450,77	28,209
450,98	28,709
451,18	31,016
451,38	29,487
451,58	29,594
451,79	29,203
451,99	32,602
452,19	34,173
452,40	29,547
452,60	28,116
452,80	26,006
453,00	30,703
453,21	29,573
453,41	33,566
453,61	29,308
453,82	32,962
454,02	24,243
454,22	26,478
454,42	31,840
454,63	29,431
454,83	32,886
455,03	30,904
455,24	33,602
