Fichero De Datos De SpectraSuite
++++++++++++++++++++++++++++++++++++
Fecha: Wed Apr 22 10:33:56 CEST 2009
Usuario: evoflor
Presente Oscuro Del Espectro: Sí
La Referencia de Presente Del Espectro De: Sí
Muestreados de los componentes de Número de espectros: 1
Espectrómetros: USB4F02353
Tiempo de integración (usec): 500000 (USB4F02353)
Promedio de Espectros Hechos un: 5 (USB4F02353)
El Alisar Del Furgón: 0 (USB4F02353)
Párrafo de de Corregir del la del del de Eléctrica del obscuridad: Sí (USB4F02353)
Estrobo/Lámpara Permitido: No (USB4F02353)
Correct for Detector Non-linearity: No (USB4F02353)
Párrafo de de Corregir del la del del de Externa del luz: No (USB4F02353)
Procesado del espectro de Número de pixeles en: 3648
>>>>> Comienza Data<<<<< Espectral Procesado Del EL
177,79	215,886
178,00	215,886
178,22	215,886
178,44	1209,231
178,66	4,138
178,88	302,736
179,09	-110,043
179,31	160,800
179,53	238,885
179,75	305,602
179,96	703,966
180,18	-143,262
180,40	231,401
180,62	436,233
180,83	-231,570
181,05	-1160,488
181,27	31740,000
181,49	53,348
181,70	57,923
181,92	688,629
182,14	300,181
182,36	-35,679
182,58	272,400
182,79	633,750
183,01	62,169
183,23	203,947
183,45	-38,031
183,66	108,584
183,88	-43,765
184,10	-2695,636
184,32	50,644
184,53	128,410
184,75	-73,631
184,97	76,146
185,18	12,293
185,40	-184,904
185,62	96,184
185,84	144,891
186,05	101,208
186,27	-39,655
186,49	786,923
186,71	-120,572
186,92	19,299
187,14	10,720
187,36	87,961
187,58	29,583
187,79	-70,760
188,01	49,706
188,23	-88,807
188,45	217,428
188,66	87,321
188,88	724,364
189,10	-276,600
189,31	-39,522
189,53	15,985
189,75	314,455
189,97	-66,692
190,18	300,258
190,40	321,529
190,62	-300,907
190,83	-102,840
191,05	136,979
191,27	135,600
191,49	146,436
191,70	-102,692
191,92	-447,966
192,14	-97,300
192,35	316,870
192,57	44,571
192,79	7,195
193,01	99,827
193,22	217,677
193,44	75,666
193,66	80,146
193,87	117,045
194,09	-43,808
194,31	51,905
194,53	684,336
194,74	40,258
194,96	98,670
195,18	143,437
195,39	-203,588
195,61	-80,697
195,83	-161,870
196,04	90,919
196,26	-455,578
196,48	120,374
196,70	80,040
196,91	-44,604
197,13	108,759
197,35	-89,949
197,56	213,808
197,78	878,060
198,00	388,531
198,21	125,534
198,43	-940,465
198,65	102,476
198,86	274,317
199,08	208,721
199,30	114,291
199,51	3,713
199,73	246,163
199,95	306,832
200,16	438,692
200,38	198,586
200,60	110,071
200,81	259,657
201,03	119,185
201,25	-1563,600
201,46	138,498
201,68	76,117
201,90	178,636
202,11	11,221
202,33	136,912
202,55	-171,750
202,76	-24,439
202,98	33,659
203,20	-323,365
203,41	-444,000
203,63	100,821
203,85	-51960,000
204,06	-15,174
204,28	-172,916
204,50	128,839
204,71	79,081
204,93	-621,120
205,15	259,518
205,36	-164,742
205,58	137,735
205,80	-54,311
206,01	77,725
206,23	104,680
206,45	167,172
206,66	90,988
206,88	38,218
207,10	142,636
207,31	267,894
207,53	117,600
207,75	37,392
207,96	58,657
208,18	-76,382
208,39	11,078
208,61	1176,000
208,83	-197,814
209,04	167,152
209,26	-127,465
209,48	149,821
209,69	99,774
209,91	297,162
210,13	9,162
210,34	88,765
210,56	89,872
210,77	-671,339
210,99	29,255
211,21	6656,471
211,42	-39,066
211,64	25,142
211,86	98,298
212,07	102,399
212,29	121,379
212,50	70,481
212,72	127,154
212,94	147,163
213,15	56,628
213,37	95,110
213,58	-5,455
213,80	330,000
214,02	-2555,294
214,23	191,715
214,45	503,803
214,67	-95,854
214,88	-461,275
215,10	-178,627
215,31	107,555
215,53	-47,591
215,75	229,670
215,96	1032,671
216,18	465,634
216,39	152,378
216,61	339,432
216,83	244,018
217,04	907,416
217,26	-42,484
217,47	130,848
217,69	199,956
217,91	51,649
218,12	-660,000
218,34	47,202
218,55	144,987
218,77	59,626
218,99	77,315
219,20	-130,829
219,42	177,988
219,63	-87,761
219,85	-33,370
220,06	40,615
220,28	121,074
220,50	69,102
220,71	46,748
220,93	1014,340
221,14	-402,600
221,36	19,388
221,58	108,436
221,79	271,816
222,01	285,000
222,22	217,500
222,44	-2,697
222,65	-7,063
222,87	-14,266
223,09	126,630
223,30	60,782
223,52	98,985
223,73	135,224
223,95	-43,437
224,16	66,309
224,38	323,602
224,60	29,207
224,81	141,439
225,03	69,119
225,24	89,253
225,46	81,827
225,67	-16,283
225,89	38,560
226,10	221,566
226,32	-23,520
226,54	6,427
226,75	5,917
226,97	82,691
227,18	136,908
227,40	32,255
227,61	5,934
227,83	-14,036
228,04	64,780
228,26	-27,674
228,47	31,977
228,69	25,828
228,91	65,899
229,12	50,832
229,34	41,396
229,55	30,530
229,77	6,008
229,98	0,356
230,20	79,208
230,41	5,797
230,63	26,717
230,84	8,399
231,06	4,313
231,27	7,626
231,49	20,170
231,71	12,192
231,92	33,791
232,14	0,431
232,35	31,146
232,57	45,946
232,78	11,566
233,00	21,212
233,21	30,639
233,43	20,087
233,64	8,415
233,86	31,518
234,07	-8,205
234,29	26,650
234,50	8,117
234,72	31,402
234,93	21,305
235,15	21,333
235,36	7,904
235,58	25,198
235,79	22,465
236,01	10,131
236,22	7,147
236,44	34,538
236,65	23,895
236,87	24,816
237,08	11,392
237,30	-10,846
237,51	4,728
237,73	-5,365
237,94	-4,175
238,16	11,923
238,37	10,933
238,59	8,433
238,80	0,094
239,02	-0,754
239,23	9,215
239,45	-1,864
239,66	21,249
239,88	18,703
240,09	18,390
240,31	-2,590
240,52	10,416
240,74	11,000
240,95	0,704
241,17	9,470
241,38	11,451
241,60	12,974
241,81	22,396
242,03	-0,859
242,24	11,654
242,46	11,282
242,67	1,078
242,89	3,426
243,10	3,972
243,32	7,515
243,53	5,114
243,75	8,504
243,96	5,478
244,18	6,750
244,39	14,949
244,60	8,385
244,82	1,963
245,03	17,450
245,25	5,821
245,46	6,553
245,68	6,599
245,89	9,509
246,11	11,064
246,32	11,116
246,54	8,959
246,75	9,520
246,97	6,944
247,18	7,909
247,39	4,721
247,61	0,225
247,82	9,648
248,04	-1,144
248,25	8,610
248,47	9,087
248,68	9,665
248,90	1,886
249,11	12,869
249,33	11,408
249,54	1,101
249,75	8,445
249,97	1,685
250,18	9,490
250,40	15,552
250,61	-4,470
250,83	-0,165
251,04	-6,702
251,25	11,437
251,47	0,037
251,68	8,478
251,90	6,524
252,11	6,171
252,33	6,153
252,54	10,283
252,76	2,062
252,97	2,416
253,18	-1,568
253,40	4,329
253,61	-0,393
253,83	8,248
254,04	11,145
254,25	3,561
254,47	0,079
254,68	5,593
254,90	7,623
255,11	9,391
255,33	2,454
255,54	2,522
255,75	-2,249
255,97	4,284
256,18	-0,364
256,40	2,013
256,61	8,873
256,82	-0,608
257,04	9,576
257,25	1,585
257,47	5,915
257,68	-0,726
257,89	5,807
258,11	5,312
258,32	3,626
258,54	4,095
258,75	5,128
258,96	10,730
259,18	4,265
259,39	1,535
259,61	6,085
259,82	4,118
260,03	6,292
260,25	4,886
260,46	3,598
260,68	4,409
260,89	5,590
261,10	1,892
261,32	4,304
261,53	4,947
261,75	6,582
261,96	0,280
262,17	8,417
262,39	3,778
262,60	2,756
262,81	0,114
263,03	3,295
263,24	2,170
263,46	-1,651
263,67	3,586
263,88	3,463
264,10	6,778
264,31	0,528
264,52	8,128
264,74	4,037
264,95	0,862
265,17	4,257
265,38	2,693
265,59	5,742
265,81	5,130
266,02	0,666
266,23	-1,084
266,45	7,081
266,66	5,098
266,87	6,199
267,09	0,387
267,30	4,875
267,52	2,818
267,73	2,032
267,94	2,741
268,16	7,528
268,37	3,727
268,58	3,849
268,80	4,436
269,01	0,793
269,22	7,525
269,44	4,463
269,65	4,243
269,86	-0,428
270,08	5,708
270,29	2,299
270,50	3,763
270,72	7,067
270,93	6,191
271,14	1,013
271,36	1,568
271,57	3,912
271,78	5,233
272,00	8,643
272,21	4,716
272,42	8,560
272,64	3,282
272,85	2,813
273,06	1,502
273,28	5,506
273,49	5,373
273,70	5,755
273,92	7,935
274,13	4,552
274,34	4,122
274,56	4,341
274,77	2,803
274,98	5,764
275,20	4,697
275,41	6,250
275,62	4,996
275,84	5,605
276,05	6,288
276,26	4,434
276,47	3,244
276,69	6,905
276,90	2,093
277,11	2,530
277,33	2,176
277,54	8,554
277,75	1,812
277,97	3,422
278,18	4,908
278,39	5,015
278,61	4,914
278,82	5,208
279,03	4,237
279,24	5,109
279,46	2,219
279,67	9,178
279,88	2,952
280,10	6,070
280,31	0,250
280,52	5,143
280,73	2,167
280,95	8,235
281,16	7,933
281,37	3,344
281,59	7,264
281,80	9,553
282,01	2,235
282,22	0,615
282,44	1,416
282,65	7,431
282,86	3,936
283,08	3,004
283,29	4,147
283,50	3,804
283,71	3,048
283,93	3,980
284,14	6,982
284,35	3,553
284,56	3,040
284,78	2,408
284,99	3,221
285,20	6,250
285,42	5,492
285,63	6,521
285,84	3,284
286,05	1,817
286,27	5,457
286,48	3,324
286,69	1,688
286,90	4,583
287,12	4,694
287,33	3,643
287,54	3,752
287,75	2,796
287,97	4,083
288,18	2,470
288,39	4,884
288,60	2,741
288,82	2,135
289,03	5,905
289,24	5,750
289,45	4,853
289,67	4,871
289,88	4,025
290,09	3,961
290,30	3,893
290,52	3,189
290,73	3,304
290,94	1,339
291,15	4,464
291,37	4,675
291,58	2,785
291,79	0,767
292,00	7,187
292,21	5,703
292,43	1,992
292,64	0,652
292,85	3,796
293,06	6,737
293,28	2,333
293,49	1,735
293,70	7,029
293,91	3,974
294,12	2,834
294,34	3,494
294,55	2,010
294,76	1,994
294,97	3,343
295,19	1,013
295,40	2,593
295,61	5,361
295,82	2,880
296,03	4,509
296,25	3,464
296,46	-0,365
296,67	3,420
296,88	0,474
297,09	6,554
297,31	3,524
297,52	5,068
297,73	3,062
297,94	3,944
298,15	5,833
298,37	6,180
298,58	4,826
298,79	4,310
299,00	1,834
299,21	0,245
299,43	5,051
299,64	6,725
299,85	6,704
300,06	2,942
300,27	2,164
300,49	7,435
300,70	3,591
300,91	4,258
301,12	3,523
301,33	5,684
301,54	3,791
301,76	4,485
301,97	3,902
302,18	4,720
302,39	6,430
302,60	7,725
302,82	5,617
303,03	6,161
303,24	2,681
303,45	5,138
303,66	3,785
303,87	3,596
304,09	5,423
304,30	4,222
304,51	2,539
304,72	1,989
304,93	4,092
305,14	3,116
305,36	0,847
305,57	3,197
305,78	3,437
305,99	3,449
306,20	5,213
306,41	2,361
306,62	2,406
306,84	3,085
307,05	1,291
307,26	4,018
307,47	4,757
307,68	3,128
307,89	1,605
308,11	6,048
308,32	3,789
308,53	5,131
308,74	1,594
308,95	4,598
309,16	5,747
309,37	6,100
309,59	1,630
309,80	4,595
310,01	3,539
310,22	5,743
310,43	4,047
310,64	4,625
310,85	4,154
311,06	4,890
311,28	4,357
311,49	3,262
311,70	7,827
311,91	3,168
312,12	5,301
312,33	5,682
312,54	5,959
312,75	3,204
312,97	2,566
313,18	5,392
313,39	2,282
313,60	3,376
313,81	6,707
314,02	2,402
314,23	5,190
314,44	2,331
314,65	2,967
314,87	3,053
315,08	3,718
315,29	6,100
315,50	4,122
315,71	5,439
315,92	7,319
316,13	5,382
316,34	4,677
316,55	6,030
316,77	1,734
316,98	3,597
317,19	3,522
317,40	4,668
317,61	5,212
317,82	2,486
318,03	2,893
318,24	2,699
318,45	6,457
318,66	3,906
318,87	1,240
319,09	5,331
319,30	1,879
319,51	3,238
319,72	5,070
319,93	6,253
320,14	3,241
320,35	5,710
320,56	2,774
320,77	3,021
320,98	8,592
321,19	5,758
321,40	4,857
321,62	6,292
321,83	5,600
322,04	5,288
322,25	2,704
322,46	8,711
322,67	4,181
322,88	3,067
323,09	1,722
323,30	4,349
323,51	7,264
323,72	5,816
323,93	3,436
324,14	1,881
324,35	1,475
324,56	0,878
324,77	3,223
324,99	2,051
325,20	2,018
325,41	4,645
325,62	4,567
325,83	3,479
326,04	2,586
326,25	4,684
326,46	1,145
326,67	5,292
326,88	3,550
327,09	2,149
327,30	2,698
327,51	2,849
327,72	3,396
327,93	6,201
328,14	2,051
328,35	5,536
328,56	3,745
328,77	3,240
328,98	5,189
329,19	3,564
329,40	4,251
329,61	5,237
329,82	1,000
330,04	1,838
330,25	3,199
330,46	1,231
330,67	1,546
330,88	3,959
331,09	2,455
331,30	3,441
331,51	5,022
331,72	3,741
331,93	2,526
332,14	1,947
332,35	4,037
332,56	2,735
332,77	6,278
332,98	4,485
333,19	3,567
333,40	3,801
333,61	2,808
333,82	6,718
334,03	8,080
334,24	3,867
334,45	4,577
334,66	4,419
334,87	4,606
335,08	4,365
335,29	0,019
335,50	2,644
335,71	2,903
335,92	2,586
336,13	4,052
336,34	2,355
336,55	5,640
336,76	4,504
336,97	3,978
337,18	3,763
337,39	2,632
337,60	1,921
337,81	4,872
338,02	4,128
338,23	2,917
338,44	3,538
338,65	5,550
338,86	4,871
339,07	2,122
339,28	4,341
339,49	3,096
339,70	1,392
339,91	4,688
340,11	6,627
340,32	1,431
340,53	1,333
340,74	2,800
340,95	3,190
341,16	5,653
341,37	4,068
341,58	-0,810
341,79	3,371
342,00	4,472
342,21	6,419
342,42	1,843
342,63	4,898
342,84	-2,102
343,05	5,552
343,26	5,596
343,47	5,159
343,68	-0,374
343,89	2,542
344,10	4,740
344,31	5,903
344,52	4,561
344,73	3,457
344,94	4,792
345,14	6,555
345,35	7,140
345,56	5,269
345,77	3,528
345,98	3,148
346,19	1,644
346,40	2,742
346,61	3,058
346,82	4,667
347,03	0,837
347,24	6,695
347,45	2,429
347,66	6,807
347,87	2,723
348,08	6,163
348,28	2,131
348,49	6,722
348,70	4,609
348,91	4,141
349,12	0,420
349,33	17,688
349,54	3,099
349,75	4,630
349,96	4,280
350,17	-0,579
350,38	1,951
350,59	3,324
350,80	3,267
351,00	4,687
351,21	8,211
351,42	4,907
351,63	3,570
351,84	3,413
352,05	6,334
352,26	3,551
352,47	4,168
352,68	5,945
352,89	3,949
353,09	5,407
353,30	2,550
353,51	3,587
353,72	5,103
353,93	4,902
354,14	0,454
354,35	2,546
354,56	2,998
354,77	3,909
354,98	2,175
355,18	3,607
355,39	7,417
355,60	2,966
355,81	5,859
356,02	4,896
356,23	4,598
356,44	3,980
356,65	6,541
356,85	8,384
357,06	3,864
357,27	5,929
357,48	2,451
357,69	6,830
357,90	2,207
358,11	3,620
358,32	4,855
358,52	2,047
358,73	6,255
358,94	2,146
359,15	4,776
359,36	6,856
359,57	2,783
359,78	4,831
359,98	3,865
360,19	2,763
360,40	6,073
360,61	2,091
360,82	3,603
361,03	8,240
361,24	5,612
361,44	1,232
361,65	4,655
361,86	1,588
362,07	5,126
362,28	3,356
362,49	1,148
362,70	3,813
362,90	4,335
363,11	2,632
363,32	0,824
363,53	5,564
363,74	4,261
363,95	7,061
364,15	2,615
364,36	8,935
364,57	4,848
364,78	4,064
364,99	3,567
365,20	5,118
365,40	3,965
365,61	0,831
365,82	4,058
366,03	1,435
366,24	3,925
366,45	2,893
366,65	4,169
366,86	3,190
367,07	6,615
367,28	4,180
367,49	5,248
367,69	8,439
367,90	3,689
368,11	2,370
368,32	2,540
368,53	2,832
368,73	5,416
368,94	4,613
369,15	1,882
369,36	6,699
369,57	3,284
369,78	1,740
369,98	7,316
370,19	8,548
370,40	4,589
370,61	1,670
370,82	5,767
371,02	4,405
371,23	5,582
371,44	5,169
371,65	3,894
371,85	5,446
372,06	4,836
372,27	3,625
372,48	3,280
372,69	-0,321
372,89	0,969
373,10	6,312
373,31	3,940
373,52	3,615
373,73	6,434
373,93	4,971
374,14	2,591
374,35	5,548
374,56	4,738
374,76	5,006
374,97	3,247
375,18	3,857
375,39	5,840
375,60	5,937
375,80	6,118
376,01	5,352
376,22	5,161
376,43	7,380
376,63	3,368
376,84	4,431
377,05	4,475
377,26	2,838
377,46	4,779
377,67	2,718
377,88	6,516
378,09	4,133
378,29	3,439
378,50	8,088
378,71	6,119
378,92	3,372
379,12	3,143
379,33	2,078
379,54	5,969
379,75	4,571
379,95	2,663
380,16	5,320
380,37	4,243
380,58	5,955
380,78	6,158
380,99	3,927
381,20	3,858
381,41	5,493
381,61	7,003
381,82	6,121
382,03	6,039
382,24	2,651
382,44	8,132
382,65	2,963
382,86	4,532
383,06	1,814
383,27	3,405
383,48	2,712
383,69	7,609
383,89	6,180
384,10	10,259
384,31	6,274
384,51	6,645
384,72	5,921
384,93	3,970
385,14	5,838
385,34	5,029
385,55	6,604
385,76	4,232
385,96	6,039
386,17	5,503
386,38	7,669
386,59	7,774
386,79	4,419
387,00	8,317
387,21	10,906
387,41	8,102
387,62	2,431
387,83	8,817
388,03	7,083
388,24	4,988
388,45	5,973
388,66	7,658
388,86	4,689
389,07	4,932
389,28	11,602
389,48	5,541
389,69	7,508
389,90	5,334
390,10	10,972
390,31	10,747
390,52	2,547
390,72	6,680
390,93	7,383
391,14	8,655
391,34	8,544
391,55	8,204
391,76	8,033
391,96	8,456
392,17	11,597
392,38	11,581
392,58	8,787
392,79	7,461
393,00	5,766
393,20	5,484
393,41	9,992
393,62	8,672
393,82	11,508
394,03	9,137
394,24	10,878
394,44	12,712
394,65	11,464
394,86	8,757
395,06	13,501
395,27	9,520
395,48	10,076
395,68	11,881
395,89	14,341
396,10	11,464
396,30	11,202
396,51	12,937
396,72	12,166
396,92	11,834
397,13	13,141
397,34	9,685
397,54	16,036
397,75	12,769
397,95	10,780
398,16	10,977
398,37	12,089
398,57	13,417
398,78	16,786
398,99	16,323
399,19	13,791
399,40	15,645
399,60	15,430
399,81	13,816
400,02	15,692
400,22	19,179
400,43	18,086
400,64	18,767
400,84	18,817
401,05	18,371
401,25	17,576
401,46	19,252
401,67	17,766
401,87	17,217
402,08	14,699
402,29	17,567
402,49	21,025
402,70	21,289
402,90	17,866
403,11	19,329
403,32	20,166
403,52	20,166
403,73	23,229
403,93	23,260
404,14	24,418
404,35	18,909
404,55	21,452
404,76	20,314
404,96	21,401
405,17	26,860
405,38	23,264
405,58	25,620
405,79	25,573
405,99	24,590
406,20	21,990
406,40	26,957
406,61	23,021
406,82	24,356
407,02	27,426
407,23	26,097
407,43	28,252
407,64	28,790
407,85	27,367
408,05	23,314
408,26	34,027
408,46	31,257
408,67	27,075
408,87	27,219
409,08	27,360
409,29	35,244
409,49	32,206
409,70	29,231
409,90	31,688
410,11	28,218
410,31	32,206
410,52	32,151
410,72	31,124
410,93	31,889
411,14	32,681
411,34	31,150
411,55	34,766
411,75	35,038
411,96	31,898
412,16	35,149
412,37	34,389
412,57	36,812
412,78	34,522
412,99	30,650
413,19	38,016
413,40	33,661
413,60	32,235
413,81	33,977
414,01	38,337
414,22	34,687
414,42	38,034
414,63	37,742
414,83	40,723
415,04	38,991
415,24	37,884
415,45	41,342
415,65	40,821
415,86	41,661
416,07	38,154
416,27	39,368
416,48	40,604
416,68	40,901
416,89	38,152
417,09	42,780
417,30	42,600
417,50	40,256
417,71	41,269
417,91	42,226
418,12	39,211
418,32	43,998
418,53	42,223
418,73	42,015
418,94	41,621
419,14	41,968
419,35	42,559
419,55	45,882
419,76	45,898
419,96	42,725
420,17	45,645
420,37	47,245
420,58	48,482
420,78	46,555
420,99	45,841
421,19	45,115
421,40	42,243
421,60	45,856
421,81	43,799
422,01	44,675
422,22	47,268
422,42	51,109
422,63	47,954
422,83	44,972
423,04	47,993
423,24	50,011
423,45	47,094
423,65	50,113
423,86	45,753
424,06	47,966
424,27	45,108
424,47	47,867
424,67	47,337
424,88	49,539
425,08	45,774
425,29	53,946
425,49	46,278
425,70	45,148
425,90	49,611
426,11	47,661
426,31	47,812
426,52	51,907
426,72	47,553
426,93	50,611
427,13	50,806
427,33	51,634
427,54	54,033
427,74	51,101
427,95	53,056
428,15	47,377
428,36	51,220
428,56	49,008
428,77	53,439
428,97	49,097
429,18	48,388
429,38	48,446
429,58	53,678
429,79	52,808
429,99	54,089
430,20	50,165
430,40	54,261
430,61	50,319
430,81	52,400
431,01	52,244
431,22	54,960
431,42	53,251
431,63	50,163
431,83	53,646
432,04	52,855
432,24	56,594
432,44	52,414
432,65	48,068
432,85	50,095
433,06	54,098
433,26	52,332
433,47	51,776
433,67	49,993
433,87	47,642
434,08	50,173
434,28	49,315
434,49	49,709
434,69	54,092
434,89	49,292
435,10	47,297
435,30	54,146
435,51	48,114
435,71	51,778
435,91	50,723
436,12	50,811
436,32	47,250
436,53	54,295
436,73	52,122
436,93	52,207
437,14	55,437
437,34	56,079
437,55	55,260
437,75	53,371
437,95	55,463
438,16	53,233
438,36	53,644
438,57	49,847
438,77	50,307
438,97	56,746
439,18	58,487
439,38	56,316
439,58	53,458
439,79	52,678
439,99	53,115
440,20	54,405
440,40	55,504
440,60	58,160
440,81	60,375
441,01	57,197
441,21	58,787
441,42	55,175
441,62	58,135
441,83	59,344
442,03	56,637
442,23	57,851
442,44	50,983
442,64	56,747
442,84	56,648
443,05	54,915
443,25	54,261
443,45	56,787
443,66	54,551
443,86	49,829
444,06	53,301
444,27	55,276
444,47	54,911
444,67	55,266
444,88	57,661
445,08	55,267
445,28	59,004
445,49	54,497
445,69	51,441
445,90	60,097
446,10	54,743
446,30	57,799
446,51	55,738
446,71	60,971
446,91	58,347
447,12	58,615
447,32	58,284
447,52	54,931
447,72	58,814
447,93	59,713
448,13	55,556
448,33	62,288
448,54	58,932
448,74	56,426
448,94	55,417
449,15	56,624
449,35	57,108
449,55	56,714
449,76	57,010
449,96	56,007
450,16	56,393
450,37	54,923
450,57	54,699
450,77	56,806
450,98	62,252
451,18	59,917
451,38	56,297
451,58	56,995
451,79	60,643
451,99	61,106
452,19	57,849
452,40	57,198
452,60	56,814
452,80	53,656
453,00	60,845
453,21	54,680
453,41	56,193
453,61	60,887
453,82	59,437
454,02	53,244
454,22	61,166
