Fichero De Datos De SpectraSuite
++++++++++++++++++++++++++++++++++++
Fecha: Wed Apr 22 13:01:55 CEST 2009
Usuario: evoflor
Presente Oscuro Del Espectro: Sí
La Referencia de Presente Del Espectro De: Sí
Muestreados de los componentes de Número de espectros: 1
Espectrómetros: USB4F02353
Tiempo de integración (usec): 500000 (USB4F02353)
Promedio de Espectros Hechos un: 5 (USB4F02353)
El Alisar Del Furgón: 0 (USB4F02353)
Párrafo de de Corregir del la del del de Eléctrica del obscuridad: Sí (USB4F02353)
Estrobo/Lámpara Permitido: No (USB4F02353)
Correct for Detector Non-linearity: No (USB4F02353)
Párrafo de de Corregir del la del del de Externa del luz: No (USB4F02353)
Procesado del espectro de Número de pixeles en: 3648
>>>>> Comienza Data<<<<< Espectral Procesado Del EL
177,79	413,999
178,00	413,999
178,22	413,999
178,44	2343,352
178,66	-477,308
178,88	246,075
179,09	72,532
179,31	346,009
179,53	841,656
179,75	27,274
179,96	1715,129
180,18	-307,554
180,40	559,092
180,62	520,570
180,83	-412,583
181,05	-1855,549
181,27	-192655,000
181,49	-139,033
181,70	592,135
181,92	653,579
182,14	509,804
182,36	23,987
182,58	1007,450
182,79	1731,942
183,01	-49,617
183,23	203,049
183,45	-58,323
183,66	111,261
183,88	937,382
184,10	-3846,455
184,32	300,879
184,53	404,559
184,75	-267,361
184,97	9,543
185,18	-265,705
185,40	-601,707
185,62	150,668
185,84	21,736
186,05	196,113
186,27	-229,784
186,49	5229,038
186,71	-7,067
186,92	130,659
187,14	-326,880
187,36	149,387
187,58	112,679
187,79	-143,701
188,01	378,447
188,23	-291,634
188,45	-72,436
188,66	265,424
188,88	-2897,364
189,10	-2934,550
189,31	61,340
189,53	-39,316
189,75	392,852
189,97	349,827
190,18	15,687
190,40	873,853
190,62	-27,343
190,83	-490,379
191,05	250,485
191,27	226,443
191,49	274,146
191,70	-493,534
191,92	-999,619
192,14	-71,186
192,35	663,806
192,57	6378,714
192,79	-38,426
193,01	141,354
193,22	155,074
193,44	-136,783
193,66	112,623
193,87	-38,426
194,09	-117,579
194,31	289,769
194,53	1145,839
194,74	90,089
194,96	36,899
195,18	169,643
195,39	-532,071
195,61	-114,821
195,83	-379,685
196,04	152,833
196,26	-90,729
196,48	21,253
196,70	531,521
196,91	190,292
197,13	57,101
197,35	74,460
197,56	766,424
197,78	2579,515
198,00	434,650
198,21	406,578
198,43	-1690,436
198,65	252,471
198,86	246,241
199,08	295,262
199,30	393,634
199,51	-557,182
199,73	237,596
199,95	298,651
200,16	782,519
200,38	140,835
200,60	11,633
200,81	364,358
201,03	296,073
201,25	-1683,550
201,46	198,493
201,68	6,838
201,90	4173,977
202,11	-810,897
202,33	142,289
202,55	731,937
202,76	-156,585
202,98	467,439
203,20	-324,784
203,41	-507,132
203,63	243,040
203,85	-134155,000
204,06	77,390
204,28	-379,651
204,50	157,224
204,71	364,231
204,93	-78,760
205,15	-249,232
205,36	-228,977
205,58	231,583
205,80	-267,361
206,01	93,256
206,23	170,601
206,45	329,679
206,66	238,019
206,88	24,109
207,10	106,489
207,31	352,921
207,53	69,586
207,75	53,894
207,96	1061,604
208,18	-253,507
208,39	107,403
208,61	4733,000
208,83	-503,679
209,04	148,512
209,26	-332,051
209,48	307,863
209,69	245,411
209,91	1040,051
210,13	106,119
210,34	117,809
210,56	240,252
210,77	-2027,205
210,99	116,241
211,21	4767,941
211,42	-319,350
211,64	-38,701
211,86	198,944
212,07	232,883
212,29	229,187
212,50	186,263
212,72	194,058
212,94	126,931
213,15	262,477
213,37	147,004
213,58	121,608
213,80	255,179
214,02	11332,647
214,23	366,341
214,45	560,836
214,67	-1197,012
214,88	-495,487
215,10	-481,787
215,31	-155,120
215,53	-6,011
215,75	358,530
215,96	1660,590
216,18	292,324
216,39	236,655
216,61	613,221
216,83	221,228
217,04	1244,438
217,26	137,992
217,47	236,204
217,69	411,518
217,91	18,415
218,12	-28855,000
218,34	138,366
218,55	682,905
218,77	104,839
218,99	129,915
219,20	-180,555
219,42	360,907
219,63	-109,499
219,85	-126,151
220,06	-134,788
220,28	363,954
220,50	69,475
220,71	88,386
220,93	3991,604
221,14	-3366,550
221,36	-51,730
221,58	-57,373
221,79	194,080
222,01	939,267
222,22	1089,836
222,44	-201,629
222,65	101,139
222,87	749,336
223,09	161,640
223,30	69,639
223,52	165,127
223,73	217,442
223,95	-17,669
224,16	241,351
224,38	300,841
224,60	133,013
224,81	52,332
225,03	128,915
225,24	341,369
225,46	43,447
225,67	43,433
225,89	68,397
226,10	607,395
226,32	1332,440
226,54	-42,637
226,75	52,701
226,97	178,509
227,18	196,081
227,40	118,064
227,61	-18,209
227,83	48,621
228,04	141,954
228,26	62,768
228,47	45,869
228,69	349,401
228,91	187,741
229,12	120,126
229,34	37,836
229,55	84,168
229,77	94,720
229,98	10,229
230,20	109,300
230,41	-8,302
230,63	126,422
230,84	57,004
231,06	8,864
231,27	45,629
231,49	72,743
231,71	32,315
231,92	37,494
232,14	39,081
232,35	107,670
232,57	97,637
232,78	18,830
233,00	46,611
233,21	63,699
233,43	10,583
233,64	19,721
233,86	68,194
234,07	40,408
234,29	27,857
234,50	26,423
234,72	55,050
234,93	24,043
235,15	22,298
235,36	20,378
235,58	48,751
235,79	52,051
236,01	13,171
236,22	18,064
236,44	51,545
236,65	26,572
236,87	12,213
237,08	10,153
237,30	9,039
237,51	25,292
237,73	-3,134
237,94	9,489
238,16	23,644
238,37	23,641
238,59	9,149
238,80	10,213
239,02	9,136
239,23	15,460
239,45	-10,250
239,66	25,806
239,88	45,686
240,09	20,688
240,31	-4,797
240,52	4,891
240,74	20,009
240,95	12,979
241,17	-0,758
241,38	7,721
241,60	15,283
241,81	24,263
242,03	4,362
242,24	12,889
242,46	18,147
242,67	2,124
242,89	11,338
243,10	16,479
243,32	13,136
243,53	16,634
243,75	4,781
243,96	2,456
244,18	9,467
244,39	11,964
244,60	8,408
244,82	2,873
245,03	24,989
245,25	9,162
245,46	24,578
245,68	3,347
245,89	19,695
246,11	17,534
246,32	10,144
246,54	7,961
246,75	10,283
246,97	17,958
247,18	20,816
247,39	2,910
247,61	14,014
247,82	16,817
248,04	3,728
248,25	2,766
248,47	16,076
248,68	16,985
248,90	3,569
249,11	3,699
249,33	20,883
249,54	6,868
249,75	13,929
249,97	3,455
250,18	15,738
250,40	19,248
250,61	-12,390
250,83	2,627
251,04	6,344
251,25	15,544
251,47	-1,154
251,68	5,436
251,90	14,443
252,11	11,905
252,33	2,123
252,54	7,350
252,76	4,427
252,97	3,527
253,18	2,433
253,40	2,442
253,61	0,668
253,83	11,094
254,04	6,462
254,25	6,199
254,47	4,513
254,68	7,152
254,90	2,355
255,11	4,447
255,33	7,309
255,54	3,194
255,75	7,430
255,97	2,926
256,18	3,129
256,40	9,437
256,61	5,196
256,82	-0,135
257,04	11,353
257,25	1,835
257,47	5,023
257,68	-0,544
257,89	7,298
258,11	9,308
258,32	4,560
258,54	10,644
258,75	10,450
258,96	12,061
259,18	8,597
259,39	0,346
259,61	12,571
259,82	2,046
260,03	4,204
260,25	7,490
260,46	4,959
260,68	3,130
260,89	2,163
261,10	4,699
261,32	3,309
261,53	1,798
261,75	5,276
261,96	-3,781
262,17	9,828
262,39	9,723
262,60	0,247
262,81	-0,662
263,03	13,743
263,24	9,299
263,46	1,807
263,67	5,282
263,88	6,378
264,10	6,373
264,31	1,039
264,52	6,740
264,74	7,716
264,95	2,089
265,17	6,008
265,38	7,915
265,59	12,810
265,81	4,983
266,02	1,396
266,23	2,956
266,45	9,598
266,66	10,681
266,87	6,913
267,09	2,867
267,30	10,368
267,52	9,604
267,73	5,371
267,94	4,575
268,16	5,823
268,37	2,200
268,58	3,936
268,80	3,615
269,01	7,769
269,22	7,940
269,44	6,112
269,65	4,332
269,86	-0,872
270,08	7,662
270,29	0,419
270,50	4,391
270,72	11,921
270,93	3,329
271,14	-1,240
271,36	4,074
271,57	10,146
271,78	9,169
272,00	6,385
272,21	7,273
272,42	3,234
272,64	10,093
272,85	0,186
273,06	4,161
273,28	8,292
273,49	5,133
273,70	7,235
273,92	3,869
274,13	8,533
274,34	3,476
274,56	8,161
274,77	-1,849
274,98	8,116
275,20	8,737
275,41	6,364
275,62	3,860
275,84	7,862
276,05	11,186
276,26	-0,139
276,47	-1,306
276,69	7,889
276,90	9,375
277,11	2,124
277,33	4,442
277,54	6,442
277,75	3,197
277,97	2,815
278,18	5,180
278,39	8,400
278,61	4,995
278,82	3,582
279,03	2,006
279,24	5,054
279,46	6,585
279,67	6,137
279,88	3,030
280,10	10,144
280,31	0,585
280,52	2,214
280,73	1,617
280,95	7,945
281,16	6,832
281,37	4,791
281,59	8,309
281,80	11,494
282,01	3,686
282,22	0,282
282,44	0,477
282,65	11,367
282,86	11,898
283,08	2,162
283,29	2,576
283,50	4,228
283,71	5,595
283,93	6,472
284,14	5,976
284,35	3,122
284,56	4,419
284,78	2,296
284,99	4,287
285,20	11,295
285,42	5,107
285,63	4,165
285,84	0,525
286,05	2,801
286,27	2,806
286,48	1,549
286,69	2,867
286,90	2,413
287,12	4,360
287,33	0,653
287,54	0,754
287,75	6,289
287,97	4,765
288,18	3,844
288,39	-0,172
288,60	5,613
288,82	2,906
289,03	2,861
289,24	5,039
289,45	7,168
289,67	7,072
289,88	3,211
290,09	6,975
290,30	3,983
290,52	3,117
290,73	6,166
290,94	-1,647
291,15	4,015
291,37	6,057
291,58	3,347
291,79	3,872
292,00	6,157
292,21	5,266
292,43	3,730
292,64	1,404
292,85	1,742
293,06	4,577
293,28	0,422
293,49	2,139
293,70	9,796
293,91	5,869
294,12	3,333
294,34	4,234
294,55	5,283
294,76	4,924
294,97	6,363
295,19	-0,777
295,40	4,854
295,61	4,759
295,82	-2,550
296,03	7,068
296,25	3,498
296,46	1,586
296,67	0,833
296,88	0,963
297,09	6,758
297,31	2,770
297,52	5,455
297,73	0,861
297,94	5,694
298,15	6,438
298,37	0,747
298,58	6,161
298,79	5,182
299,00	2,522
299,21	2,448
299,43	1,631
299,64	5,178
299,85	6,810
300,06	2,360
300,27	1,661
300,49	9,199
300,70	4,946
300,91	3,237
301,12	1,269
301,33	8,842
301,54	1,267
301,76	1,198
301,97	1,673
302,18	2,216
302,39	5,829
302,60	14,195
302,82	3,513
303,03	9,277
303,24	5,598
303,45	5,410
303,66	3,768
303,87	3,015
304,09	7,536
304,30	1,071
304,51	2,306
304,72	1,213
304,93	8,421
305,14	2,099
305,36	1,099
305,57	2,913
305,78	4,910
305,99	2,352
306,20	2,538
306,41	2,442
306,62	1,196
306,84	2,531
307,05	0,246
307,26	3,908
307,47	6,803
307,68	2,650
307,89	1,882
308,11	5,682
308,32	2,639
308,53	2,475
308,74	-2,091
308,95	4,240
309,16	1,911
309,37	5,256
309,59	1,167
309,80	6,261
310,01	3,017
310,22	6,496
310,43	-0,140
310,64	3,511
310,85	5,695
311,06	2,202
311,28	3,239
311,49	3,391
311,70	5,031
311,91	-2,571
312,12	2,608
312,33	5,308
312,54	4,869
312,75	4,443
312,97	-0,023
313,18	4,625
313,39	2,801
313,60	1,273
313,81	3,807
314,02	5,397
314,23	7,312
314,44	-1,517
314,65	2,564
314,87	-0,600
315,08	2,543
315,29	6,732
315,50	3,438
315,71	5,519
315,92	6,256
316,13	4,532
316,34	5,216
316,55	6,795
316,77	-1,588
316,98	3,232
317,19	1,041
317,40	5,631
317,61	9,309
317,82	2,973
318,03	1,171
318,24	4,786
318,45	5,085
318,66	3,841
318,87	0,686
319,09	5,073
319,30	7,072
319,51	5,728
319,72	3,791
319,93	6,485
320,14	6,679
320,35	5,667
320,56	0,573
320,77	2,976
320,98	9,974
321,19	3,064
321,40	2,434
321,62	4,330
321,83	3,308
322,04	3,195
322,25	1,075
322,46	7,395
322,67	7,018
322,88	4,430
323,09	0,504
323,30	8,766
323,51	7,747
323,72	5,421
323,93	2,858
324,14	3,105
324,35	-0,024
324,56	-0,580
324,77	1,959
324,99	3,675
325,20	1,469
325,41	3,941
325,62	3,413
325,83	0,539
326,04	3,141
326,25	2,825
326,46	-0,046
326,67	5,346
326,88	4,143
327,09	2,588
327,30	0,241
327,51	6,275
327,72	3,380
327,93	5,600
328,14	0,593
328,35	3,025
328,56	7,205
328,77	1,831
328,98	4,310
329,19	5,240
329,40	3,951
329,61	1,741
329,82	-0,670
330,04	4,825
330,25	3,024
330,46	3,361
330,67	1,373
330,88	2,767
331,09	1,987
331,30	2,044
331,51	2,119
331,72	3,478
331,93	7,917
332,14	2,007
332,35	1,858
332,56	4,420
332,77	5,261
332,98	-1,075
333,19	0,921
333,40	5,184
333,61	3,553
333,82	7,010
334,03	5,713
334,24	5,656
334,45	2,763
334,66	8,258
334,87	5,516
335,08	3,208
335,29	1,168
335,50	1,983
335,71	2,519
335,92	3,520
336,13	8,041
336,34	1,747
336,55	1,036
336,76	4,433
336,97	4,741
337,18	-1,844
337,39	4,965
337,60	3,831
337,81	6,424
338,02	1,864
338,23	2,898
338,44	5,123
338,65	3,794
338,86	3,620
339,07	3,169
339,28	4,376
339,49	3,776
339,70	2,296
339,91	2,640
340,11	8,409
340,32	1,060
340,53	-0,641
340,74	-1,897
340,95	2,242
341,16	5,150
341,37	3,126
341,58	0,721
341,79	1,595
342,00	2,906
342,21	2,310
342,42	3,811
342,63	7,032
342,84	2,011
343,05	3,500
343,26	4,618
343,47	9,319
343,68	4,119
343,89	3,099
344,10	1,477
344,31	5,720
344,52	5,071
344,73	3,051
344,94	2,859
345,14	1,849
345,35	7,668
345,56	4,587
345,77	0,787
345,98	2,992
346,19	4,531
346,40	2,838
346,61	2,565
346,82	4,479
347,03	3,831
347,24	5,218
347,45	2,354
347,66	8,533
347,87	3,604
348,08	7,531
348,28	-1,453
348,49	4,271
348,70	5,364
348,91	4,637
349,12	0,515
349,33	16,912
349,54	2,960
349,75	5,899
349,96	3,169
350,17	3,432
350,38	0,820
350,59	3,565
350,80	0,123
351,00	9,046
351,21	5,800
351,42	3,553
351,63	-1,181
351,84	6,239
352,05	7,486
352,26	4,541
352,47	3,068
352,68	8,547
352,89	5,472
353,09	6,727
353,30	-1,894
353,51	2,548
353,72	6,995
353,93	6,957
354,14	0,433
354,35	3,488
354,56	8,814
354,77	3,602
354,98	-0,536
355,18	7,319
355,39	9,041
355,60	0,493
355,81	4,021
356,02	7,704
356,23	5,129
356,44	1,651
356,65	5,833
356,85	11,990
357,06	6,643
357,27	3,712
357,48	-0,838
357,69	6,368
357,90	7,314
358,11	0,118
358,32	2,329
358,52	8,455
358,73	5,260
358,94	0,900
359,15	2,348
359,36	6,978
359,57	5,979
359,78	6,454
359,98	0,062
360,19	3,165
360,40	5,290
360,61	5,808
360,82	1,960
361,03	10,437
361,24	7,337
361,44	1,212
361,65	3,726
361,86	3,502
362,07	6,458
362,28	4,676
362,49	0,367
362,70	8,059
362,90	4,912
363,11	1,485
363,32	-1,138
363,53	2,788
363,74	6,230
363,95	7,189
364,15	4,539
364,36	5,876
364,57	6,457
364,78	2,617
364,99	2,082
365,20	8,358
365,40	6,465
365,61	1,997
365,82	5,076
366,03	7,486
366,24	5,901
366,45	2,294
366,65	3,061
366,86	4,053
367,07	4,367
367,28	1,660
367,49	3,327
367,69	10,685
367,90	5,838
368,11	5,416
368,32	0,474
368,53	9,262
368,73	7,536
368,94	3,482
369,15	4,148
369,36	8,864
369,57	3,769
369,78	3,873
369,98	5,126
370,19	7,151
370,40	4,997
370,61	2,488
370,82	2,373
371,02	8,020
371,23	9,327
371,44	5,274
371,65	4,810
371,85	7,464
372,06	7,502
372,27	6,683
372,48	2,894
372,69	3,505
372,89	4,303
373,10	4,130
373,31	4,468
373,52	5,165
373,73	9,912
373,93	3,881
374,14	4,606
374,35	5,558
374,56	7,973
374,76	4,655
374,97	2,850
375,18	7,796
375,39	5,107
375,60	5,227
375,80	2,832
376,01	5,609
376,22	6,037
376,43	1,491
376,63	3,834
376,84	3,128
377,05	4,690
377,26	2,912
377,46	2,081
377,67	2,311
377,88	4,057
378,09	6,076
378,29	-1,819
378,50	3,917
378,71	6,250
378,92	3,804
379,12	3,500
379,33	3,226
379,54	3,146
379,75	5,460
379,95	1,058
380,16	7,565
380,37	6,057
380,58	3,967
380,78	4,767
380,99	3,556
381,20	4,351
381,41	4,326
381,61	5,438
381,82	2,730
382,03	2,225
382,24	4,616
382,44	5,355
382,65	6,220
382,86	8,090
383,06	4,709
383,27	5,286
383,48	0,876
383,69	4,130
383,89	4,610
384,10	3,313
384,31	3,653
384,51	9,851
384,72	4,306
384,93	5,757
385,14	2,470
385,34	6,868
385,55	1,508
385,76	1,304
385,96	8,147
386,17	6,603
386,38	6,877
386,59	6,840
386,79	3,708
387,00	12,115
387,21	8,380
387,41	4,942
387,62	3,185
387,83	10,002
388,03	2,976
388,24	0,668
388,45	6,233
388,66	7,064
388,86	5,673
389,07	3,454
389,28	11,068
389,48	7,268
389,69	5,133
389,90	2,231
390,10	5,381
390,31	7,015
390,52	-2,089
390,72	4,635
390,93	6,797
391,14	4,350
391,34	2,981
391,55	8,741
391,76	8,873
391,96	7,484
392,17	2,975
392,38	7,006
392,58	8,894
392,79	3,318
393,00	1,537
393,20	3,944
393,41	8,029
393,62	4,817
393,82	3,852
394,03	6,511
394,24	6,638
394,44	8,609
394,65	4,276
394,86	4,901
395,06	8,886
395,27	4,480
395,48	4,589
395,68	4,244
395,89	7,783
396,10	10,792
396,30	3,517
396,51	1,145
396,72	4,357
396,92	4,017
397,13	2,957
397,34	0,968
397,54	6,225
397,75	0,935
397,95	-0,585
398,16	7,498
398,37	5,142
398,57	1,737
398,78	5,621
398,99	8,788
399,19	5,115
399,40	7,963
399,60	0,969
399,81	1,683
400,02	6,943
400,22	6,387
400,43	3,123
400,64	5,062
400,84	-0,939
401,05	7,520
401,25	10,745
401,46	5,835
401,67	9,139
401,87	7,968
402,08	-0,826
402,29	3,953
402,49	10,536
402,70	8,361
402,90	0,549
403,11	5,873
403,32	4,211
403,52	4,844
403,73	6,232
403,93	9,703
404,14	12,458
404,35	4,987
404,55	2,217
404,76	3,429
404,96	6,273
405,17	9,734
405,38	8,717
405,58	3,459
405,79	8,906
405,99	7,978
406,20	6,024
406,40	1,104
406,61	6,157
406,82	5,086
407,02	9,344
407,23	2,564
407,43	5,099
407,64	1,594
407,85	6,017
408,05	-3,581
408,26	11,796
408,46	10,244
408,67	2,498
408,87	2,533
409,08	2,926
409,29	11,035
409,49	9,271
409,70	3,725
409,90	9,860
410,11	5,832
410,31	11,939
410,52	6,176
410,72	4,756
410,93	8,865
411,14	2,080
411,34	1,938
411,55	8,475
411,75	10,979
411,96	7,319
412,16	4,393
412,37	4,701
412,57	7,776
412,78	7,148
412,99	6,754
413,19	5,572
413,40	5,434
413,60	2,397
413,81	2,480
414,01	8,101
414,22	2,812
414,42	-0,072
414,63	0,040
414,83	8,184
415,04	13,239
415,24	4,143
415,45	4,272
415,65	5,285
415,86	12,527
416,07	5,403
416,27	7,798
416,48	9,284
416,68	12,279
416,89	3,375
417,09	2,635
417,30	12,740
417,50	3,266
417,71	9,382
417,91	8,098
418,12	1,601
418,32	7,065
418,53	5,137
418,73	7,377
418,94	4,406
419,14	10,421
419,35	-2,572
419,55	7,544
419,76	8,475
419,96	2,582
420,17	4,247
420,37	6,029
420,58	9,270
420,78	7,096
420,99	6,893
421,19	7,813
421,40	7,968
421,60	8,851
421,81	2,151
422,01	3,777
422,22	6,096
422,42	7,856
422,63	8,300
422,83	4,117
423,04	9,347
423,24	13,207
423,45	3,553
423,65	8,902
423,86	13,920
424,06	10,520
424,27	4,999
424,47	3,582
424,67	4,711
424,88	7,795
425,08	2,826
425,29	12,176
425,49	5,415
425,70	1,353
425,90	7,164
426,11	3,294
426,31	7,174
426,52	7,802
426,72	2,885
426,93	3,021
427,13	10,483
427,33	8,103
427,54	6,998
427,74	6,690
427,95	14,367
428,15	3,271
428,36	4,641
428,56	6,306
428,77	5,900
428,97	6,660
429,18	5,459
429,38	3,919
429,58	10,390
429,79	10,238
429,99	6,466
430,20	-0,412
430,40	11,178
430,61	3,491
430,81	2,288
431,01	7,084
431,22	12,412
431,42	11,436
431,63	3,408
431,83	4,073
432,04	7,776
432,24	14,364
432,44	6,754
432,65	4,962
432,85	3,442
433,06	7,783
433,26	6,078
433,47	4,281
433,67	7,858
433,87	7,873
434,08	3,636
434,28	4,814
434,49	6,087
434,69	11,714
434,89	1,787
435,10	5,593
435,30	8,958
435,51	4,532
435,71	8,429
435,91	4,318
436,12	8,119
436,32	5,199
436,53	8,110
436,73	4,083
436,93	7,486
437,14	12,227
437,34	8,620
437,55	7,800
437,75	7,084
437,95	10,799
438,16	4,240
438,36	2,834
438,57	2,845
438,77	5,519
438,97	7,591
439,18	12,315
439,38	5,954
439,58	3,690
439,79	4,277
439,99	1,315
440,20	11,830
440,40	6,223
440,60	3,305
440,81	9,521
441,01	6,539
441,21	9,136
441,42	7,442
441,62	8,182
441,83	7,246
442,03	9,731
442,23	7,320
442,44	4,518
442,64	10,135
442,84	5,403
443,05	3,083
443,25	6,516
443,45	8,976
443,66	4,718
443,86	4,638
444,06	2,452
444,27	5,002
444,47	6,903
444,67	4,237
444,88	7,652
445,08	6,000
445,28	7,646
445,49	3,703
445,69	4,226
445,90	10,333
446,10	12,817
446,30	5,451
446,51	4,734
446,71	9,711
446,91	10,924
447,12	11,536
447,32	5,013
447,52	12,603
447,72	7,823
447,93	6,183
448,13	4,642
448,33	15,220
448,54	11,264
448,74	1,017
448,94	5,910
449,15	12,254
449,35	10,283
449,55	5,865
449,76	9,056
449,96	8,595
450,16	12,307
450,37	2,814
450,57	6,882
450,77	4,611
450,98	6,344
451,18	7,371
451,38	6,441
451,58	10,357
451,79	6,238
451,99	11,173
452,19	5,075
452,40	13,130
452,60	0,633
452,80	3,422
453,00	5,370
453,21	9,553
453,41	9,008
453,61	3,677
453,82	10,064
454,02	6,346
454,22	12,189
454,42	8,031
454,63	3,221
454,83	8,262
455,03	12,464
455,24	10,106
455,44	5,938
