Fichero De Datos De SpectraSuite
++++++++++++++++++++++++++++++++++++
Fecha: Wed Apr 22 12:58:35 CEST 2009
Usuario: evoflor
Presente Oscuro Del Espectro: Sí
La Referencia de Presente Del Espectro De: Sí
Muestreados de los componentes de Número de espectros: 1
Espectrómetros: USB4F02353
Tiempo de integración (usec): 500000 (USB4F02353)
Promedio de Espectros Hechos un: 5 (USB4F02353)
El Alisar Del Furgón: 0 (USB4F02353)
Párrafo de de Corregir del la del del de Eléctrica del obscuridad: Sí (USB4F02353)
Estrobo/Lámpara Permitido: No (USB4F02353)
Correct for Detector Non-linearity: No (USB4F02353)
Párrafo de de Corregir del la del del de Externa del luz: No (USB4F02353)
Procesado del espectro de Número de pixeles en: 3648
>>>>> Comienza Data<<<<< Espectral Procesado Del EL
177,79	295,325
178,00	295,325
178,22	295,325
178,44	2151,044
178,66	-409,403
178,88	320,993
179,09	204,872
179,31	273,139
179,53	962,709
179,75	218,238
179,96	515,991
180,18	-463,862
180,40	689,347
180,62	648,156
180,83	-291,921
181,05	-2288,476
181,27	-181355,000
181,49	8,793
181,70	514,058
181,92	737,843
182,14	611,310
182,36	67,964
182,58	13,450
182,79	1014,531
183,01	-15,108
183,23	247,708
183,45	-289,400
183,66	41,792
183,88	881,500
184,10	-3853,727
184,32	493,453
184,53	366,120
184,75	-221,386
184,97	4,392
185,18	-132,810
185,40	-711,803
185,62	208,934
185,84	81,561
186,05	112,329
186,27	-206,973
186,49	3513,654
186,71	102,313
186,92	163,791
187,14	-432,500
187,36	206,933
187,58	162,198
187,79	-44,460
188,01	458,354
188,23	-300,440
188,45	58,593
188,66	379,710
188,88	-3297,364
189,10	-2641,550
189,31	-86,783
189,53	92,801
189,75	361,034
189,97	406,750
190,18	-5,773
190,40	1040,324
190,62	-264,118
190,83	-289,796
191,05	258,275
191,27	191,586
191,49	466,720
191,70	-633,918
191,92	-491,992
192,14	-164,258
192,35	679,191
192,57	5361,571
192,79	-99,240
193,01	302,046
193,22	125,349
193,44	-220,401
193,66	84,605
193,87	128,169
194,09	-44,565
194,31	275,331
194,53	997,587
194,74	19,605
194,96	124,879
195,18	227,765
195,39	-504,631
195,61	-229,133
195,83	-478,380
196,04	173,472
196,26	-495,251
196,48	5,044
196,70	324,761
196,91	133,311
197,13	345,203
197,35	-46,282
197,56	851,254
197,78	2938,470
198,00	374,510
198,21	696,869
198,43	-1462,529
198,65	222,394
198,86	66,385
199,08	270,016
199,30	243,229
199,51	-737,313
199,73	266,412
199,95	362,017
200,16	752,904
200,38	444,594
200,60	175,257
200,81	419,176
201,03	394,986
201,25	-2533,550
201,46	242,785
201,68	69,138
201,90	2587,614
202,11	-348,683
202,33	112,307
202,55	680,687
202,76	-243,541
202,98	459,425
203,20	105,986
203,41	-452,395
203,63	153,083
203,85	-183155,000
204,06	136,787
204,28	-152,904
204,50	198,005
204,71	372,889
204,93	147,640
205,15	77,274
205,36	-116,166
205,58	332,543
205,80	-197,236
206,01	93,595
206,23	221,401
206,45	205,805
206,66	224,263
206,88	120,244
207,10	414,216
207,31	341,530
207,53	-3,843
207,75	36,071
207,96	1648,918
208,18	-249,582
208,39	57,288
208,61	4718,714
208,83	-391,281
209,04	403,758
209,26	-176,290
209,48	324,761
209,69	346,218
209,91	1038,361
210,13	121,093
210,34	184,153
210,56	281,399
210,77	-1931,142
210,99	164,901
211,21	1720,882
211,42	-220,080
211,64	-83,579
211,86	398,453
212,07	334,906
212,29	321,374
212,50	170,431
212,72	126,365
212,94	113,884
213,15	289,292
213,37	164,832
213,58	-82,827
213,80	-5223,393
214,02	13420,882
214,23	419,626
214,45	441,164
214,67	-1048,232
214,88	-671,997
215,10	-484,076
215,31	-85,469
215,53	-144,193
215,75	340,443
215,96	2076,739
216,18	399,366
216,39	307,309
216,61	694,662
216,83	685,067
217,04	1805,112
217,26	83,476
217,47	191,164
217,69	433,988
217,91	24,343
218,12	-89555,000
218,34	193,526
218,55	657,706
218,77	41,637
218,99	107,771
219,20	-191,918
219,42	487,736
219,63	-160,245
219,85	-177,885
220,06	160,981
220,28	280,353
220,50	48,363
220,71	80,410
220,93	5985,943
221,14	-2614,550
221,36	2,572
221,58	-151,373
221,79	201,586
222,01	1260,819
222,22	778,651
222,44	-996,011
222,65	150,167
222,87	739,545
223,09	131,461
223,30	80,934
223,52	260,346
223,73	186,235
223,95	90,641
224,16	266,299
224,38	429,751
224,60	197,010
224,81	-61,589
225,03	78,805
225,24	289,246
225,46	79,992
225,67	36,046
225,89	104,260
226,10	592,334
226,32	788,440
226,54	17,298
226,75	12,907
226,97	206,200
227,18	166,912
227,40	98,355
227,61	45,058
227,83	47,143
228,04	216,228
228,26	39,824
228,47	21,323
228,69	322,678
228,91	179,201
229,12	110,728
229,34	68,775
229,55	96,361
229,77	42,196
229,98	9,960
230,20	105,530
230,41	11,023
230,63	126,656
230,84	-17,685
231,06	54,444
231,27	65,286
231,49	62,139
231,71	25,801
231,92	40,711
232,14	36,205
232,35	74,370
232,57	42,752
232,78	4,630
233,00	65,552
233,21	73,123
233,43	31,828
233,64	33,801
233,86	48,568
234,07	30,227
234,29	19,692
234,50	15,309
234,72	62,994
234,93	28,652
235,15	24,009
235,36	28,069
235,58	52,752
235,79	56,562
236,01	2,896
236,22	9,667
236,44	52,468
236,65	29,105
236,87	22,103
237,08	7,073
237,30	-14,604
237,51	23,932
237,73	-10,452
237,94	23,435
238,16	16,214
238,37	19,912
238,59	10,419
238,80	18,307
239,02	4,721
239,23	30,236
239,45	4,336
239,66	24,515
239,88	41,134
240,09	33,385
240,31	-7,418
240,52	8,383
240,74	12,056
240,95	16,791
241,17	4,641
241,38	4,967
241,60	14,661
241,81	21,675
242,03	3,013
242,24	7,207
242,46	21,006
242,67	3,651
242,89	8,922
243,10	18,180
243,32	21,737
243,53	15,902
243,75	7,753
243,96	4,198
244,18	13,721
244,39	13,978
244,60	11,801
244,82	6,183
245,03	27,595
245,25	12,871
245,46	30,769
245,68	1,876
245,89	23,608
246,11	15,415
246,32	8,649
246,54	7,862
246,75	9,568
246,97	17,048
247,18	21,327
247,39	3,317
247,61	13,256
247,82	20,498
248,04	10,469
248,25	6,060
248,47	20,249
248,68	16,622
248,90	5,616
249,11	7,841
249,33	17,857
249,54	18,389
249,75	13,436
249,97	2,629
250,18	22,626
250,40	19,420
250,61	-4,426
250,83	7,544
251,04	9,079
251,25	13,769
251,47	-0,830
251,68	9,521
251,90	13,147
252,11	10,345
252,33	9,851
252,54	11,770
252,76	8,365
252,97	5,024
253,18	0,608
253,40	6,074
253,61	3,635
253,83	7,495
254,04	10,412
254,25	4,591
254,47	5,399
254,68	9,025
254,90	6,148
255,11	7,586
255,33	6,279
255,54	7,157
255,75	8,166
255,97	4,141
256,18	3,105
256,40	10,148
256,61	11,782
256,82	-2,452
257,04	15,371
257,25	6,741
257,47	7,017
257,68	4,016
257,89	9,271
258,11	9,082
258,32	4,160
258,54	7,479
258,75	14,765
258,96	15,001
259,18	4,763
259,39	5,606
259,61	9,583
259,82	5,151
260,03	7,908
260,25	7,427
260,46	5,334
260,68	4,942
260,89	2,220
261,10	5,689
261,32	4,819
261,53	6,929
261,75	10,408
261,96	-0,686
262,17	11,942
262,39	12,583
262,60	1,526
262,81	-0,436
263,03	10,972
263,24	6,294
263,46	0,841
263,67	3,042
263,88	8,766
264,10	7,452
264,31	2,053
264,52	3,464
264,74	12,887
264,95	6,393
265,17	5,077
265,38	5,706
265,59	10,718
265,81	11,145
266,02	0,817
266,23	2,091
266,45	15,743
266,66	11,376
266,87	8,038
267,09	7,459
267,30	11,093
267,52	12,092
267,73	5,766
267,94	3,402
268,16	11,176
268,37	7,235
268,58	8,813
268,80	6,332
269,01	7,097
269,22	9,748
269,44	5,619
269,65	4,311
269,86	2,947
270,08	8,505
270,29	2,934
270,50	5,895
270,72	12,049
270,93	6,522
271,14	1,552
271,36	7,319
271,57	10,766
271,78	7,111
272,00	6,259
272,21	7,580
272,42	5,574
272,64	12,569
272,85	1,778
273,06	1,607
273,28	13,199
273,49	7,266
273,70	9,900
273,92	4,517
274,13	8,096
274,34	3,675
274,56	12,310
274,77	5,073
274,98	9,001
275,20	6,828
275,41	9,474
275,62	5,058
275,84	6,299
276,05	16,123
276,26	2,204
276,47	0,124
276,69	13,595
276,90	7,894
277,11	1,235
277,33	3,243
277,54	10,739
277,75	7,747
277,97	0,257
278,18	3,403
278,39	8,627
278,61	1,764
278,82	8,712
279,03	5,079
279,24	2,787
279,46	7,464
279,67	8,121
279,88	5,704
280,10	10,456
280,31	2,931
280,52	4,062
280,73	-1,533
280,95	5,111
281,16	9,070
281,37	3,337
281,59	11,975
281,80	14,124
282,01	5,375
282,22	5,218
282,44	2,421
282,65	13,977
282,86	9,785
283,08	6,557
283,29	5,163
283,50	4,270
283,71	7,137
283,93	5,244
284,14	7,788
284,35	2,222
284,56	6,983
284,78	3,532
284,99	4,270
285,20	9,282
285,42	4,300
285,63	4,627
285,84	1,216
286,05	6,313
286,27	5,279
286,48	3,674
286,69	3,815
286,90	4,286
287,12	0,072
287,33	3,297
287,54	2,502
287,75	8,693
287,97	6,419
288,18	4,747
288,39	2,591
288,60	4,996
288,82	2,298
289,03	3,206
289,24	5,945
289,45	8,718
289,67	3,741
289,88	3,451
290,09	6,902
290,30	6,894
290,52	4,456
290,73	3,594
290,94	-0,756
291,15	4,781
291,37	5,342
291,58	3,691
291,79	6,312
292,00	4,970
292,21	9,573
292,43	5,364
292,64	3,725
292,85	2,960
293,06	9,879
293,28	3,694
293,49	2,310
293,70	9,395
293,91	3,709
294,12	4,145
294,34	3,697
294,55	6,542
294,76	5,831
294,97	7,868
295,19	-0,443
295,40	7,267
295,61	5,711
295,82	0,580
296,03	3,176
296,25	4,709
296,46	2,084
296,67	1,474
296,88	0,063
297,09	9,742
297,31	5,804
297,52	4,683
297,73	3,842
297,94	7,324
298,15	5,902
298,37	2,820
298,58	6,898
298,79	7,659
299,00	2,861
299,21	3,090
299,43	1,836
299,64	8,421
299,85	5,229
300,06	3,172
300,27	1,290
300,49	6,160
300,70	5,993
300,91	5,111
301,12	2,324
301,33	8,193
301,54	4,828
301,76	5,529
301,97	1,389
302,18	5,635
302,39	8,343
302,60	13,895
302,82	3,205
303,03	10,323
303,24	5,634
303,45	4,556
303,66	5,675
303,87	4,744
304,09	7,738
304,30	2,710
304,51	1,621
304,72	3,315
304,93	6,013
305,14	6,280
305,36	0,598
305,57	1,129
305,78	7,851
305,99	4,078
306,20	3,549
306,41	3,771
306,62	0,809
306,84	2,963
307,05	0,159
307,26	5,883
307,47	6,568
307,68	5,892
307,89	3,871
308,11	5,786
308,32	3,932
308,53	3,389
308,74	2,745
308,95	4,129
309,16	6,294
309,37	6,947
309,59	0,707
309,80	5,802
310,01	7,200
310,22	4,132
310,43	2,038
310,64	7,126
310,85	7,166
311,06	2,386
311,28	3,554
311,49	6,621
311,70	9,321
311,91	1,695
312,12	1,291
312,33	5,940
312,54	7,982
312,75	3,657
312,97	3,475
313,18	5,556
313,39	4,394
313,60	2,147
313,81	5,635
314,02	6,539
314,23	6,875
314,44	2,036
314,65	4,919
314,87	1,768
315,08	3,712
315,29	6,671
315,50	7,454
315,71	5,769
315,92	10,185
316,13	3,613
316,34	5,131
316,55	7,417
316,77	1,098
316,98	2,299
317,19	2,695
317,40	5,666
317,61	10,675
317,82	3,463
318,03	-0,475
318,24	2,292
318,45	7,759
318,66	5,650
318,87	0,892
319,09	5,977
319,30	6,388
319,51	7,680
319,72	6,031
319,93	5,923
320,14	4,396
320,35	8,216
320,56	1,651
320,77	4,204
320,98	7,441
321,19	6,189
321,40	2,807
321,62	7,349
321,83	4,139
322,04	2,329
322,25	5,356
322,46	10,507
322,67	10,294
322,88	5,067
323,09	1,995
323,30	8,751
323,51	11,447
323,72	6,466
323,93	1,977
324,14	5,185
324,35	1,494
324,56	0,114
324,77	2,435
324,99	5,082
325,20	0,544
325,41	5,138
325,62	6,110
325,83	2,070
326,04	3,627
326,25	6,665
326,46	1,469
326,67	5,263
326,88	6,657
327,09	5,857
327,30	2,644
327,51	9,092
327,72	5,906
327,93	6,220
328,14	2,045
328,35	5,405
328,56	5,941
328,77	3,285
328,98	8,275
329,19	6,399
329,40	9,605
329,61	3,971
329,82	-0,452
330,04	5,654
330,25	3,404
330,46	7,389
330,67	0,091
330,88	5,049
331,09	2,846
331,30	4,231
331,51	5,969
331,72	6,722
331,93	6,293
332,14	3,099
332,35	5,684
332,56	4,352
332,77	7,981
332,98	0,723
333,19	2,641
333,40	5,672
333,61	5,038
333,82	4,574
334,03	8,634
334,24	8,129
334,45	4,545
334,66	6,250
334,87	3,884
335,08	2,451
335,29	5,102
335,50	1,218
335,71	2,793
335,92	7,342
336,13	7,738
336,34	1,410
336,55	7,172
336,76	7,708
336,97	5,352
337,18	4,074
337,39	5,264
337,60	6,932
337,81	8,669
338,02	4,368
338,23	3,073
338,44	5,055
338,65	6,334
338,86	6,875
339,07	2,010
339,28	6,299
339,49	6,305
339,70	3,092
339,91	4,867
340,11	9,093
340,32	2,212
340,53	-0,603
340,74	-0,040
340,95	2,910
341,16	7,345
341,37	5,284
341,58	0,872
341,79	3,310
342,00	2,728
342,21	4,262
342,42	2,408
342,63	8,134
342,84	2,420
343,05	3,539
343,26	8,338
343,47	6,960
343,68	2,919
343,89	6,127
344,10	5,726
344,31	5,322
344,52	6,282
344,73	2,675
344,94	4,674
345,14	3,681
345,35	8,277
345,56	3,578
345,77	3,999
345,98	6,544
346,19	7,249
346,40	3,309
346,61	2,996
346,82	5,365
347,03	5,363
347,24	4,641
347,45	0,798
347,66	10,971
347,87	1,555
348,08	6,015
348,28	-0,927
348,49	6,263
348,70	6,399
348,91	7,082
349,12	1,041
349,33	18,874
349,54	4,407
349,75	8,890
349,96	3,537
350,17	4,789
350,38	2,909
350,59	6,880
350,80	1,926
351,00	6,150
351,21	8,177
351,42	1,946
351,63	2,296
351,84	5,071
352,05	7,184
352,26	6,038
352,47	3,548
352,68	6,395
352,89	7,551
353,09	7,031
353,30	-1,429
353,51	3,430
353,72	8,264
353,93	9,600
354,14	0,848
354,35	2,870
354,56	4,946
354,77	3,586
354,98	0,763
355,18	6,098
355,39	13,050
355,60	5,327
355,81	5,002
356,02	6,814
356,23	4,766
356,44	3,733
356,65	6,235
356,85	12,559
357,06	8,056
357,27	8,833
357,48	0,675
357,69	7,177
357,90	7,267
358,11	2,220
358,32	6,042
358,52	7,206
358,73	5,864
358,94	3,307
359,15	7,296
359,36	8,397
359,57	5,204
359,78	4,702
359,98	4,639
360,19	1,612
360,40	4,774
360,61	5,993
360,82	2,402
361,03	10,627
361,24	9,184
361,44	5,490
361,65	6,706
361,86	3,854
362,07	3,028
362,28	4,034
362,49	-1,110
362,70	9,820
362,90	7,224
363,11	2,388
363,32	1,063
363,53	4,560
363,74	8,875
363,95	8,539
364,15	7,882
364,36	11,821
364,57	3,916
364,78	4,324
364,99	5,025
365,20	7,630
365,40	8,880
365,61	3,167
365,82	6,573
366,03	8,882
366,24	5,741
366,45	3,438
366,65	3,721
366,86	5,712
367,07	6,096
367,28	4,062
367,49	3,014
367,69	9,756
367,90	5,607
368,11	6,259
368,32	4,138
368,53	8,092
368,73	7,374
368,94	5,206
369,15	6,753
369,36	7,979
369,57	7,012
369,78	5,167
369,98	5,410
370,19	11,471
370,40	4,980
370,61	4,646
370,82	1,140
371,02	10,675
371,23	10,499
371,44	5,256
371,65	4,137
371,85	8,856
372,06	5,922
372,27	4,172
372,48	6,408
372,69	5,865
372,89	5,426
373,10	2,854
373,31	5,389
373,52	6,839
373,73	10,948
373,93	4,139
374,14	2,584
374,35	9,082
374,56	9,295
374,76	6,590
374,97	5,337
375,18	8,344
375,39	7,070
375,60	7,807
375,80	6,919
376,01	2,942
376,22	8,280
376,43	4,454
376,63	3,817
376,84	5,862
377,05	7,281
377,26	2,383
377,46	2,315
377,67	5,789
377,88	8,037
378,09	7,224
378,29	1,057
378,50	7,103
378,71	9,327
378,92	2,761
379,12	4,901
379,33	5,863
379,54	2,289
379,75	6,478
379,95	3,682
380,16	7,456
380,37	11,321
380,58	7,509
380,78	8,144
380,99	3,444
381,20	4,430
381,41	6,185
381,61	6,810
381,82	9,259
382,03	8,255
382,24	7,834
382,44	8,949
382,65	5,529
382,86	6,712
383,06	7,607
383,27	6,088
383,48	5,004
383,69	10,017
383,89	6,543
384,10	4,766
384,31	5,247
384,51	11,743
384,72	5,882
384,93	7,646
385,14	4,044
385,34	4,476
385,55	4,108
385,76	3,256
385,96	12,698
386,17	6,552
386,38	10,842
386,59	6,887
386,79	6,084
387,00	13,370
387,21	8,428
387,41	7,460
387,62	6,737
387,83	10,756
388,03	9,788
388,24	1,116
388,45	8,521
388,66	8,524
388,86	8,474
389,07	4,890
389,28	11,288
389,48	8,124
389,69	2,990
389,90	2,835
390,10	9,246
390,31	11,054
390,52	4,033
390,72	6,346
390,93	7,906
391,14	7,934
391,34	6,807
391,55	11,420
391,76	14,311
391,96	8,633
392,17	4,396
392,38	6,612
392,58	10,648
392,79	9,321
393,00	5,057
393,20	6,382
393,41	11,070
393,62	11,678
393,82	9,078
394,03	8,095
394,24	7,993
394,44	10,733
394,65	13,002
394,86	3,336
395,06	12,354
395,27	7,896
395,48	8,483
395,68	12,003
395,89	10,699
396,10	14,609
396,30	9,833
396,51	5,061
396,72	9,966
396,92	6,697
397,13	8,458
397,34	5,247
397,54	12,463
397,75	5,488
397,95	7,416
398,16	10,162
398,37	11,643
398,57	9,152
398,78	10,683
398,99	10,111
399,19	12,570
399,40	16,679
399,60	8,453
399,81	10,035
400,02	16,460
400,22	14,391
400,43	6,060
400,64	10,570
400,84	9,592
401,05	15,225
401,25	14,797
401,46	15,243
401,67	12,443
401,87	12,264
402,08	6,774
402,29	11,087
402,49	19,329
402,70	18,005
402,90	12,835
403,11	15,211
403,32	15,649
403,52	10,636
403,73	14,058
403,93	12,843
404,14	18,846
404,35	13,718
404,55	9,848
404,76	13,726
404,96	16,066
405,17	19,971
405,38	15,977
405,58	12,378
405,79	16,928
405,99	18,282
406,20	13,121
406,40	10,085
406,61	19,589
406,82	13,127
407,02	17,912
407,23	14,580
407,43	14,851
407,64	13,333
407,85	16,969
408,05	6,692
408,26	28,536
408,46	20,899
408,67	13,441
408,87	15,165
409,08	17,877
409,29	24,946
409,49	19,291
409,70	18,529
409,90	19,593
410,11	20,104
410,31	22,263
410,52	16,063
410,72	16,311
410,93	20,363
411,14	19,261
411,34	16,871
411,55	21,930
411,75	23,449
411,96	19,719
412,16	19,426
412,37	14,955
412,57	18,959
412,78	20,927
412,99	15,829
413,19	20,480
413,40	16,458
413,60	16,679
413,81	15,161
414,01	19,279
414,22	16,291
414,42	19,189
414,63	16,026
414,83	23,720
415,04	26,066
415,24	18,282
415,45	20,822
415,65	21,186
415,86	24,289
416,07	19,439
416,27	19,272
416,48	27,722
416,68	26,827
416,89	15,122
417,09	16,742
417,30	24,546
417,50	18,354
417,71	22,647
417,91	23,060
418,12	20,763
418,32	24,576
418,53	22,493
418,73	18,566
418,94	20,011
419,14	20,146
419,35	20,868
419,55	22,571
419,76	22,032
419,96	21,495
420,17	20,550
420,37	21,040
420,58	26,445
420,78	24,756
420,99	24,018
421,19	22,051
421,40	24,246
421,60	23,616
421,81	19,554
422,01	21,979
422,22	23,388
422,42	27,505
422,63	25,019
422,83	21,636
423,04	26,398
423,24	29,300
423,45	19,802
423,65	23,992
423,86	29,500
424,06	26,574
424,27	20,489
424,47	20,937
424,67	18,777
424,88	27,747
425,08	19,821
425,29	28,633
425,49	21,483
425,70	19,125
425,90	24,992
426,11	22,275
426,31	28,236
426,52	24,849
426,72	21,306
426,93	21,437
427,13	27,241
427,33	21,003
427,54	26,706
427,74	25,186
427,95	30,064
428,15	20,252
428,36	23,715
428,56	23,163
428,77	27,155
428,97	25,905
429,18	25,590
429,38	21,117
429,58	26,347
429,79	27,825
429,99	22,936
430,20	15,453
430,40	28,747
430,61	22,003
430,81	19,346
431,01	28,585
431,22	25,491
431,42	30,246
431,63	20,181
431,83	21,174
432,04	24,577
432,24	30,040
432,44	23,773
432,65	24,368
432,85	25,120
433,06	28,241
433,26	20,453
433,47	22,055
433,67	23,037
433,87	24,250
434,08	20,901
434,28	21,084
434,49	21,315
434,69	31,182
434,89	21,113
435,10	19,733
435,30	27,792
435,51	20,929
435,71	21,053
435,91	21,465
436,12	23,726
436,32	25,073
436,53	24,075
436,73	21,027
436,93	27,996
437,14	24,300
437,34	24,220
437,55	20,743
437,75	25,720
437,95	28,555
438,16	24,698
438,36	22,225
438,57	21,849
438,77	20,235
438,97	23,258
439,18	28,820
439,38	20,635
439,58	20,742
439,79	25,924
439,99	21,878
440,20	28,471
440,40	25,229
440,60	22,959
440,81	25,745
441,01	27,683
441,21	25,813
441,42	25,263
441,62	24,520
441,83	28,560
442,03	24,570
442,23	26,551
442,44	23,514
442,64	26,194
442,84	22,806
443,05	26,896
443,25	24,221
443,45	28,417
443,66	25,377
443,86	21,606
444,06	25,541
444,27	22,005
444,47	27,797
444,67	19,982
444,88	27,201
445,08	26,898
445,28	22,599
445,49	21,777
445,69	20,996
445,90	25,827
446,10	27,468
446,30	22,023
446,51	26,771
446,71	31,761
446,91	31,436
447,12	28,502
447,32	24,208
447,52	24,711
447,72	26,261
447,93	23,914
448,13	21,333
448,33	31,488
448,54	27,923
448,74	21,512
448,94	29,378
449,15	31,570
449,35	29,019
449,55	25,487
449,76	29,613
449,96	24,553
450,16	29,214
450,37	23,625
450,57	28,224
450,77	23,025
450,98	29,267
451,18	25,509
451,38	21,163
451,58	24,794
451,79	25,234
451,99	27,661
452,19	24,467
452,40	29,167
