Fichero De Datos De SpectraSuite
++++++++++++++++++++++++++++++++++++
Fecha: Wed Apr 22 13:02:40 CEST 2009
Usuario: evoflor
Presente Oscuro Del Espectro: Sí
La Referencia de Presente Del Espectro De: Sí
Muestreados de los componentes de Número de espectros: 1
Espectrómetros: USB4F02353
Tiempo de integración (usec): 500000 (USB4F02353)
Promedio de Espectros Hechos un: 5 (USB4F02353)
El Alisar Del Furgón: 0 (USB4F02353)
Párrafo de de Corregir del la del del de Eléctrica del obscuridad: Sí (USB4F02353)
Estrobo/Lámpara Permitido: No (USB4F02353)
Correct for Detector Non-linearity: No (USB4F02353)
Párrafo de de Corregir del la del del de Externa del luz: No (USB4F02353)
Procesado del espectro de Número de pixeles en: 3648
>>>>> Comienza Data<<<<< Espectral Procesado Del EL
177,79	361,380
178,00	361,380
178,22	361,380
178,44	1105,055
178,66	-395,650
178,88	180,977
179,09	-1,021
179,31	333,809
179,53	875,666
179,75	285,361
179,96	1290,000
180,18	-648,738
180,40	502,357
180,62	401,698
180,83	-125,455
181,05	-1451,707
181,27	-112740,000
181,49	-117,913
181,70	191,308
181,92	951,472
182,14	1009,157
182,36	99,350
182,58	285,600
182,79	1375,179
183,01	-135,749
183,23	260,742
183,45	-438,277
183,66	86,549
183,88	467,294
184,10	-3653,455
184,32	359,257
184,53	316,387
184,75	-227,442
184,97	-10,604
185,18	-123,947
185,40	-697,788
185,62	110,449
185,84	94,847
186,05	302,289
186,27	-238,890
186,49	5928,462
186,71	46,169
186,92	123,265
187,14	-249,337
187,36	188,473
187,58	102,289
187,79	-149,453
188,01	459,413
188,23	-540,170
188,45	-39,453
188,66	157,768
188,88	-3391,636
189,10	-2297,400
189,31	59,488
189,53	-17,628
189,75	462,818
189,97	270,923
190,18	-199,828
190,40	615,529
190,62	-159,295
190,83	-411,946
191,05	232,178
191,27	-1,886
191,49	152,079
191,70	-490,096
191,92	-680,847
192,14	-39,378
192,35	616,552
192,57	5869,714
192,79	-80,428
193,01	253,943
193,22	156,142
193,44	-238,464
193,66	138,435
193,87	48,694
194,09	-50,207
194,31	353,893
194,53	958,322
194,74	207,968
194,96	57,852
195,18	154,830
195,39	-523,061
195,61	-223,982
195,83	-376,174
196,04	151,158
196,26	-173,065
196,48	52,444
196,70	288,549
196,91	32,717
197,13	94,025
197,35	48,971
197,56	911,889
197,78	2204,776
198,00	977,203
198,21	800,680
198,43	-1749,070
198,65	193,462
198,86	382,878
199,08	192,590
199,30	268,300
199,51	-719,023
199,73	210,899
199,95	410,495
200,16	468,231
200,38	311,639
200,60	128,730
200,81	270,321
201,03	12,880
201,25	-1820,400
201,46	244,332
201,68	23,977
201,90	4464,545
202,11	-347,863
202,33	147,469
202,55	790,500
202,76	-214,462
202,98	223,484
203,20	137,308
203,41	-522,316
203,63	118,834
203,85	-163140,000
204,06	67,378
204,28	-245,639
204,50	135,454
204,71	394,770
204,93	361,920
205,15	250,120
205,36	-286,119
205,58	366,679
205,80	-233,882
206,01	56,740
206,23	176,370
206,45	325,542
206,66	142,537
206,88	-30,655
207,10	381,000
207,31	391,311
207,53	-66,171
207,75	45,502
207,96	1076,418
208,18	-236,928
208,39	150,963
208,61	5741,143
208,83	-402,675
209,04	254,904
209,26	-370,230
209,48	358,330
209,69	292,161
209,91	912,973
210,13	94,915
210,34	41,985
210,56	223,473
210,77	-1993,228
210,99	120,000
211,21	8167,059
211,42	-277,577
211,64	-103,662
211,86	175,679
212,07	312,486
212,29	329,449
212,50	169,894
212,72	444,000
212,94	77,443
213,15	244,778
213,37	97,123
213,58	-16,497
213,80	280,714
214,02	18596,471
214,23	383,102
214,45	458,164
214,67	-2220,000
214,88	-532,349
215,10	-341,092
215,31	-38,777
215,53	-32,182
215,75	299,374
215,96	2097,764
216,18	-98,028
216,39	318,275
216,61	660,786
216,83	1150,179
217,04	1691,461
217,26	23,613
217,47	173,712
217,69	307,608
217,91	48,093
218,12	-92040,000
218,34	191,216
218,55	370,663
218,77	133,098
218,99	199,539
219,20	-246,979
219,42	560,122
219,63	-58,081
219,85	-70,236
220,06	-30,231
220,28	226,711
220,50	53,780
220,71	109,233
220,93	4147,925
221,14	-2171,400
221,36	-79,618
221,58	-51,164
221,79	157,482
222,01	2058,103
222,22	747,632
222,44	366,742
222,65	141,188
222,87	108,671
223,09	152,445
223,30	104,205
223,52	265,405
223,73	227,463
223,95	64,986
224,16	315,959
224,38	329,005
224,60	147,154
224,81	125,847
225,03	99,383
225,24	240,176
225,46	90,100
225,67	36,579
225,89	48,613
226,10	570,000
226,32	995,520
226,54	3,876
226,75	-28,624
226,97	139,122
227,18	146,870
227,40	99,571
227,61	100,209
227,83	58,573
228,04	176,465
228,26	104,495
228,47	49,783
228,69	268,005
228,91	131,619
229,12	117,030
229,34	76,327
229,55	100,534
229,77	38,286
229,98	-14,441
230,20	91,016
230,41	21,006
230,63	194,465
230,84	71,850
231,06	38,679
231,27	34,671
231,49	57,156
231,71	23,612
231,92	44,268
232,14	44,108
232,35	90,342
232,57	83,862
232,78	16,204
233,00	65,104
233,21	66,857
233,43	28,329
233,64	17,278
233,86	73,249
234,07	38,295
234,29	19,652
234,50	15,954
234,72	37,168
234,93	9,913
235,15	31,939
235,36	36,971
235,58	40,766
235,79	54,304
236,01	27,421
236,22	24,168
236,44	42,257
236,65	40,379
236,87	23,704
237,08	6,468
237,30	2,880
237,51	34,071
237,73	-8,162
237,94	8,982
238,16	18,629
238,37	26,671
238,59	11,328
238,80	7,688
239,02	8,120
239,23	20,960
239,45	0,399
239,66	22,949
239,88	34,754
240,09	22,879
240,31	2,163
240,52	8,647
240,74	17,328
240,95	17,499
241,17	1,667
241,38	1,279
241,60	12,550
241,81	32,513
242,03	5,586
242,24	14,193
242,46	28,498
242,67	4,652
242,89	12,043
243,10	20,921
243,32	15,154
243,53	22,091
243,75	-1,817
243,96	11,462
244,18	16,615
244,39	21,812
244,60	11,504
244,82	2,409
245,03	23,750
245,25	10,042
245,46	28,357
245,68	-0,869
245,89	23,874
246,11	16,137
246,32	10,754
246,54	4,218
246,75	11,782
246,97	13,935
247,18	20,526
247,39	6,587
247,61	13,664
247,82	16,719
248,04	6,392
248,25	0,297
248,47	20,120
248,68	15,890
248,90	5,067
249,11	6,561
249,33	24,770
249,54	9,056
249,75	8,885
249,97	7,609
250,18	17,650
250,40	18,562
250,61	-9,523
250,83	2,385
251,04	2,609
251,25	15,065
251,47	1,120
251,68	13,253
251,90	13,477
252,11	13,216
252,33	5,890
252,54	7,547
252,76	6,234
252,97	6,156
253,18	-0,570
253,40	5,721
253,61	5,191
253,83	12,449
254,04	11,485
254,25	6,163
254,47	3,611
254,68	11,530
254,90	5,338
255,11	6,636
255,33	11,885
255,54	2,594
255,75	8,156
255,97	6,965
256,18	4,107
256,40	9,033
256,61	4,132
256,82	-2,004
257,04	17,381
257,25	1,563
257,47	6,843
257,68	6,530
257,89	9,652
258,11	10,007
258,32	9,878
258,54	6,044
258,75	14,460
258,96	10,793
259,18	4,669
259,39	3,706
259,61	13,206
259,82	5,224
260,03	4,648
260,25	7,417
260,46	6,395
260,68	5,516
260,89	4,011
261,10	6,286
261,32	9,608
261,53	3,797
261,75	7,242
261,96	-2,650
262,17	12,438
262,39	9,649
262,60	3,998
262,81	-1,982
263,03	16,738
263,24	9,919
263,46	2,635
263,67	0,584
263,88	6,918
264,10	9,794
264,31	1,670
264,52	8,224
264,74	13,031
264,95	7,408
265,17	6,411
265,38	4,901
265,59	12,472
265,81	13,666
266,02	0,250
266,23	2,887
266,45	14,269
266,66	10,153
266,87	7,919
267,09	4,545
267,30	12,949
267,52	12,282
267,73	4,093
267,94	5,549
268,16	8,966
268,37	4,406
268,58	7,209
268,80	1,241
269,01	7,623
269,22	7,435
269,44	8,446
269,65	2,922
269,86	6,436
270,08	9,575
270,29	0,729
270,50	5,813
270,72	9,098
270,93	4,925
271,14	3,626
271,36	4,375
271,57	10,380
271,78	8,498
272,00	7,634
272,21	7,135
272,42	6,328
272,64	8,654
272,85	3,382
273,06	3,375
273,28	3,513
273,49	4,961
273,70	5,524
273,92	8,375
274,13	8,297
274,34	5,933
274,56	7,189
274,77	1,718
274,98	10,463
275,20	5,607
275,41	9,638
275,62	1,991
275,84	7,975
276,05	13,120
276,26	5,017
276,47	0,363
276,69	11,353
276,90	5,355
277,11	3,314
277,33	5,212
277,54	10,835
277,75	8,254
277,97	5,327
278,18	4,893
278,39	7,951
278,61	4,479
278,82	6,112
279,03	3,644
279,24	7,212
279,46	6,193
279,67	9,688
279,88	5,998
280,10	11,968
280,31	2,794
280,52	3,201
280,73	1,558
280,95	7,784
281,16	9,729
281,37	3,936
281,59	12,194
281,80	12,964
282,01	5,367
282,22	5,304
282,44	2,097
282,65	14,697
282,86	8,298
283,08	5,211
283,29	6,272
283,50	6,539
283,71	5,968
283,93	3,996
284,14	6,243
284,35	4,736
284,56	6,292
284,78	1,598
284,99	6,164
285,20	13,298
285,42	6,936
285,63	4,830
285,84	0,716
286,05	5,819
286,27	3,699
286,48	3,280
286,69	4,977
286,90	5,586
287,12	5,770
287,33	1,932
287,54	1,743
287,75	8,774
287,97	7,812
288,18	2,764
288,39	2,931
288,60	4,588
288,82	3,193
289,03	4,809
289,24	5,132
289,45	7,449
289,67	7,626
289,88	2,280
290,09	3,409
290,30	5,804
290,52	1,741
290,73	3,237
290,94	-2,054
291,15	4,505
291,37	6,977
291,58	4,431
291,79	6,412
292,00	6,935
292,21	6,241
292,43	3,088
292,64	1,959
292,85	6,194
293,06	9,687
293,28	3,214
293,49	1,802
293,70	10,033
293,91	2,850
294,12	4,914
294,34	6,721
294,55	4,519
294,76	6,219
294,97	7,766
295,19	1,349
295,40	7,880
295,61	6,850
295,82	2,043
296,03	5,874
296,25	5,546
296,46	2,768
296,67	1,871
296,88	-0,170
297,09	6,960
297,31	3,487
297,52	5,990
297,73	2,756
297,94	7,637
298,15	5,996
298,37	3,311
298,58	6,742
298,79	6,988
299,00	1,746
299,21	2,428
299,43	0,955
299,64	9,873
299,85	7,526
300,06	2,436
300,27	1,718
300,49	10,253
300,70	4,900
300,91	2,801
301,12	1,548
301,33	8,603
301,54	7,329
301,76	3,936
301,97	1,752
302,18	4,061
302,39	6,770
302,60	12,549
302,82	3,764
303,03	10,366
303,24	6,170
303,45	5,223
303,66	4,347
303,87	2,808
304,09	8,521
304,30	1,051
304,51	2,431
304,72	3,713
304,93	7,760
305,14	4,415
305,36	0,665
305,57	1,972
305,78	7,113
305,99	4,237
306,20	3,177
306,41	2,350
306,62	1,648
306,84	3,332
307,05	2,552
307,26	6,209
307,47	7,446
307,68	2,509
307,89	4,524
308,11	5,850
308,32	2,422
308,53	3,669
308,74	2,985
308,95	4,392
309,16	7,947
309,37	7,699
309,59	1,098
309,80	5,227
310,01	5,216
310,22	4,848
310,43	2,127
310,64	5,187
310,85	6,965
311,06	1,688
311,28	6,645
311,49	5,187
311,70	7,647
311,91	1,641
312,12	4,010
312,33	5,575
312,54	6,902
312,75	3,386
312,97	3,346
313,18	4,461
313,39	3,707
313,60	2,117
313,81	4,490
314,02	7,666
314,23	5,477
314,44	0,537
314,65	5,760
314,87	1,737
315,08	2,473
315,29	5,583
315,50	6,212
315,71	9,265
315,92	7,283
316,13	3,964
316,34	5,173
316,55	7,485
316,77	0,764
316,98	3,759
317,19	1,698
317,40	5,513
317,61	10,418
317,82	0,582
318,03	0,518
318,24	3,113
318,45	9,326
318,66	4,332
318,87	2,010
319,09	5,271
319,30	6,531
319,51	4,627
319,72	5,059
319,93	6,640
320,14	7,303
320,35	5,031
320,56	-0,738
320,77	4,657
320,98	11,836
321,19	2,529
321,40	2,982
321,62	4,932
321,83	0,933
322,04	5,037
322,25	4,678
322,46	9,864
322,67	6,507
322,88	4,357
323,09	1,514
323,30	6,620
323,51	7,515
323,72	8,376
323,93	-0,070
324,14	5,800
324,35	0,569
324,56	2,029
324,77	4,876
324,99	4,366
325,20	-1,258
325,41	4,183
325,62	5,741
325,83	3,117
326,04	3,645
326,25	5,606
326,46	0,547
326,67	4,695
326,88	5,692
327,09	3,360
327,30	1,394
327,51	4,107
327,72	6,691
327,93	6,725
328,14	1,216
328,35	2,325
328,56	6,960
328,77	5,057
328,98	5,886
329,19	6,392
329,40	5,778
329,61	4,292
329,82	1,298
330,04	7,651
330,25	2,688
330,46	3,695
330,67	1,870
330,88	4,364
331,09	6,229
331,30	3,005
331,51	3,025
331,72	5,222
331,93	5,917
332,14	3,427
332,35	6,772
332,56	6,209
332,77	6,476
332,98	-0,676
333,19	3,213
333,40	6,988
333,61	3,243
333,82	6,397
334,03	3,610
334,24	8,201
334,45	5,423
334,66	5,856
334,87	4,063
335,08	2,339
335,29	2,366
335,50	3,863
335,71	3,311
335,92	6,409
336,13	7,915
336,34	2,047
336,55	5,654
336,76	7,994
336,97	3,184
337,18	2,670
337,39	3,142
337,60	6,318
337,81	3,508
338,02	1,212
338,23	3,824
338,44	4,183
338,65	2,298
338,86	7,271
339,07	2,536
339,28	6,398
339,49	5,823
339,70	3,337
339,91	2,882
340,11	9,301
340,32	3,834
340,53	2,472
340,74	2,547
340,95	0,718
341,16	5,425
341,37	2,860
341,58	2,388
341,79	6,270
342,00	3,889
342,21	4,387
342,42	4,552
342,63	8,591
342,84	2,923
343,05	6,163
343,26	6,944
343,47	6,275
343,68	3,505
343,89	3,516
344,10	5,800
344,31	6,054
344,52	4,492
344,73	1,920
344,94	4,695
345,14	5,439
345,35	4,919
345,56	4,151
345,77	4,413
345,98	5,988
346,19	5,191
346,40	1,726
346,61	3,295
346,82	7,273
347,03	4,737
347,24	5,532
347,45	3,088
347,66	11,182
347,87	6,690
348,08	6,688
348,28	-0,049
348,49	8,150
348,70	9,073
348,91	5,902
349,12	3,117
349,33	18,140
349,54	5,535
349,75	5,705
349,96	5,223
350,17	3,581
350,38	2,756
350,59	7,685
350,80	5,618
351,00	6,949
351,21	8,367
351,42	2,735
351,63	0,486
351,84	6,669
352,05	11,833
352,26	2,866
352,47	1,584
352,68	5,704
352,89	7,369
353,09	7,752
353,30	-0,203
353,51	3,543
353,72	9,811
353,93	8,220
354,14	2,320
354,35	0,970
354,56	8,383
354,77	5,192
354,98	0,457
355,18	4,622
355,39	9,557
355,60	1,567
355,81	4,995
356,02	6,958
356,23	8,003
356,44	5,465
356,65	5,002
356,85	10,651
357,06	9,031
357,27	6,515
357,48	-0,532
357,69	6,698
357,90	6,380
358,11	1,401
358,32	4,602
358,52	9,283
358,73	8,103
358,94	2,761
359,15	3,859
359,36	8,193
359,57	4,408
359,78	7,890
359,98	6,283
360,19	0,038
360,40	5,384
360,61	6,993
360,82	1,538
361,03	10,147
361,24	10,360
361,44	2,579
361,65	5,095
361,86	2,035
362,07	6,433
362,28	5,813
362,49	0,799
362,70	6,110
362,90	7,019
363,11	3,449
363,32	0,809
363,53	5,873
363,74	10,944
363,95	8,146
364,15	7,050
364,36	9,126
364,57	4,161
364,78	6,665
364,99	2,967
365,20	8,245
365,40	7,954
365,61	3,391
365,82	8,079
366,03	7,432
366,24	4,230
366,45	1,313
366,65	3,567
366,86	6,344
367,07	6,811
367,28	4,139
367,49	3,571
367,69	9,837
367,90	9,022
368,11	5,049
368,32	7,403
368,53	8,292
368,73	8,832
368,94	4,329
369,15	5,984
369,36	9,170
369,57	5,232
369,78	2,818
369,98	8,417
370,19	9,853
370,40	5,801
370,61	4,266
370,82	3,747
371,02	8,554
371,23	9,681
371,44	1,460
371,65	5,784
371,85	8,759
372,06	5,884
372,27	3,857
372,48	6,949
372,69	3,981
372,89	5,581
373,10	3,911
373,31	3,213
373,52	5,081
373,73	8,990
373,93	4,132
374,14	5,771
374,35	6,235
374,56	8,709
374,76	8,294
374,97	6,237
375,18	8,651
375,39	6,692
375,60	8,863
375,80	4,175
376,01	6,540
376,22	5,858
376,43	3,970
376,63	4,935
376,84	6,792
377,05	6,600
377,26	1,224
377,46	2,402
377,67	6,519
377,88	7,560
378,09	6,450
378,29	1,830
378,50	4,812
378,71	7,288
378,92	3,961
379,12	6,249
379,33	6,330
379,54	5,145
379,75	8,039
379,95	5,383
380,16	6,744
380,37	8,093
380,58	8,064
380,78	9,850
380,99	6,515
381,20	4,132
381,41	4,810
381,61	9,459
381,82	5,978
382,03	8,443
382,24	4,334
382,44	5,552
382,65	7,053
382,86	8,660
383,06	5,312
383,27	4,636
383,48	5,061
383,69	10,412
383,89	7,207
384,10	5,728
384,31	6,555
384,51	9,331
384,72	9,987
384,93	3,758
385,14	5,368
385,34	6,040
385,55	8,160
385,76	2,880
385,96	9,082
386,17	4,464
386,38	9,678
386,59	9,322
386,79	7,093
387,00	11,011
387,21	9,055
387,41	10,256
387,62	5,137
387,83	14,036
388,03	4,192
388,24	3,840
388,45	9,510
388,66	9,054
388,86	3,935
389,07	5,762
389,28	11,654
389,48	8,788
389,69	6,872
389,90	9,285
390,10	8,761
390,31	13,342
390,52	1,303
390,72	5,686
390,93	7,268
391,14	6,368
391,34	8,977
391,55	9,460
391,76	13,538
391,96	10,496
392,17	4,069
392,38	9,776
392,58	7,322
392,79	8,798
393,00	7,920
393,20	6,697
393,41	5,930
393,62	7,018
393,82	6,813
394,03	8,754
394,24	7,266
394,44	12,834
394,65	9,707
394,86	4,585
395,06	12,681
395,27	9,067
395,48	5,608
395,68	9,167
395,89	8,778
396,10	11,416
396,30	8,400
396,51	5,591
396,72	9,322
396,92	6,183
397,13	10,464
397,34	4,073
397,54	9,898
397,75	9,021
397,95	8,679
398,16	7,440
398,37	8,094
398,57	6,918
398,78	11,025
398,99	11,109
399,19	10,497
399,40	13,379
399,60	6,011
399,81	8,517
400,02	11,128
400,22	14,076
400,43	8,044
400,64	9,730
400,84	6,695
401,05	12,906
401,25	15,713
401,46	13,200
401,67	13,996
401,87	12,887
402,08	5,077
402,29	9,001
402,49	15,573
402,70	16,125
402,90	7,899
403,11	9,436
403,32	10,965
403,52	8,305
403,73	12,732
403,93	14,801
404,14	19,388
404,35	9,880
404,55	8,559
404,76	11,182
404,96	11,978
405,17	16,064
405,38	16,270
405,58	9,437
405,79	16,787
405,99	17,469
406,20	14,242
406,40	7,064
406,61	13,910
406,82	14,208
407,02	14,450
407,23	10,606
407,43	13,578
407,64	10,864
407,85	9,886
408,05	8,580
408,26	24,148
408,46	17,176
408,67	10,262
408,87	13,339
409,08	13,184
409,29	19,884
409,49	15,995
409,70	15,170
409,90	16,868
410,11	15,296
410,31	18,423
410,52	12,776
410,72	12,819
410,93	16,734
411,14	9,886
411,34	11,233
411,55	19,608
411,75	20,419
411,96	17,177
412,16	14,818
412,37	16,840
412,57	16,865
412,78	17,856
412,99	16,786
413,19	16,609
413,40	16,521
413,60	9,520
413,81	8,139
414,01	17,369
414,22	16,720
414,42	14,619
414,63	14,431
414,83	20,691
415,04	21,515
415,24	17,866
415,45	12,784
415,65	15,124
415,86	18,466
416,07	14,710
416,27	18,575
416,48	23,090
416,68	22,165
416,89	13,500
417,09	13,989
417,30	22,490
417,50	19,189
417,71	17,821
417,91	18,362
418,12	18,821
418,32	20,981
418,53	20,819
418,73	15,125
418,94	16,682
419,14	20,104
419,35	15,275
419,55	15,700
419,76	18,372
419,96	16,217
420,17	15,986
420,37	15,820
420,58	25,161
420,78	17,690
420,99	15,741
421,19	18,154
421,40	22,081
421,60	23,356
421,81	13,537
422,01	17,179
422,22	17,394
422,42	16,689
422,63	20,498
422,83	17,862
423,04	19,665
423,24	26,792
423,45	17,003
423,65	23,294
423,86	26,164
424,06	23,840
424,27	16,826
424,47	18,243
424,67	15,001
424,88	20,054
425,08	17,200
425,29	22,004
425,49	18,973
425,70	13,210
425,90	18,513
426,11	20,209
426,31	19,578
426,52	20,690
426,72	17,453
426,93	14,701
427,13	24,258
427,33	17,643
427,54	24,354
427,74	23,312
427,95	27,425
428,15	15,805
428,36	19,068
428,56	18,427
428,77	23,436
428,97	19,341
429,18	20,374
429,38	15,974
429,58	22,602
429,79	22,084
429,99	16,705
430,20	11,819
430,40	23,939
430,61	15,526
430,81	14,177
431,01	19,261
431,22	21,117
431,42	25,417
431,63	13,225
431,83	16,642
432,04	19,657
432,24	23,676
432,44	19,310
432,65	19,400
432,85	18,232
433,06	21,836
433,26	20,412
433,47	16,682
433,67	15,527
433,87	19,506
434,08	15,361
434,28	17,066
434,49	18,164
434,69	21,545
434,89	15,528
435,10	16,252
435,30	22,430
435,51	14,882
435,71	17,089
435,91	17,938
436,12	19,034
436,32	18,424
436,53	18,772
436,73	17,895
436,93	23,594
437,14	20,785
437,34	18,718
437,55	15,297
437,75	18,702
437,95	25,456
438,16	18,529
438,36	18,565
438,57	12,948
438,77	16,281
438,97	19,800
439,18	25,100
439,38	18,607
439,58	18,890
439,79	20,252
439,99	14,417
440,20	22,933
440,40	21,073
440,60	13,682
440,81	25,737
441,01	23,087
441,21	23,521
441,42	20,884
441,62	23,438
441,83	16,118
442,03	20,195
442,23	20,270
442,44	18,953
442,64	18,770
442,84	14,818
443,05	19,557
443,25	16,534
443,45	19,139
443,66	17,509
443,86	14,136
444,06	20,998
444,27	16,251
444,47	22,162
444,67	11,958
444,88	23,256
445,08	19,447
445,28	18,208
445,49	16,085
445,69	15,717
445,90	23,906
446,10	25,493
446,30	19,500
446,51	19,434
446,71	28,642
446,91	26,221
447,12	24,624
447,32	15,295
447,52	21,797
447,72	20,396
447,93	19,306
448,13	14,986
448,33	26,739
448,54	21,490
448,74	16,176
448,94	21,564
449,15	28,598
449,35	24,369
449,55	17,860
449,76	22,529
449,96	18,073
450,16	22,632
450,37	19,101
450,57	20,648
450,77	17,691
450,98	23,801
451,18	19,560
451,38	21,002
451,58	22,865
451,79	22,048
451,99	22,351
452,19	20,759
452,40	23,215
452,60	17,046
