Fichero De Datos De SpectraSuite
++++++++++++++++++++++++++++++++++++
Fecha: Wed Apr 22 13:03:25 CEST 2009
Usuario: evoflor
Presente Oscuro Del Espectro: Sí
La Referencia de Presente Del Espectro De: Sí
Muestreados de los componentes de Número de espectros: 1
Espectrómetros: USB4F02353
Tiempo de integración (usec): 500000 (USB4F02353)
Promedio de Espectros Hechos un: 5 (USB4F02353)
El Alisar Del Furgón: 0 (USB4F02353)
Párrafo de de Corregir del la del del de Eléctrica del obscuridad: Sí (USB4F02353)
Estrobo/Lámpara Permitido: No (USB4F02353)
Correct for Detector Non-linearity: No (USB4F02353)
Párrafo de de Corregir del la del del de Externa del luz: No (USB4F02353)
Procesado del espectro de Número de pixeles en: 3648
>>>>> Comienza Data<<<<< Espectral Procesado Del EL
177,79	297,084
178,00	297,084
178,22	297,084
178,44	2254,341
178,66	-431,950
178,88	348,681
179,09	-298,957
179,31	308,443
179,53	889,025
179,75	376,973
179,96	566,853
180,18	-293,708
180,40	587,755
180,62	377,334
180,83	-256,384
181,05	-2162,866
181,27	-198955,000
181,49	-86,207
181,70	519,442
181,92	1101,294
182,14	669,744
182,36	110,029
182,58	-117,550
182,79	1518,996
183,01	-128,619
183,23	292,515
183,45	-374,015
183,66	-275,022
183,88	593,265
184,10	-3355,545
184,32	213,998
184,53	225,079
184,75	-301,172
184,97	-44,010
185,18	-164,201
185,40	-519,495
185,62	134,138
185,84	123,919
186,05	203,267
186,27	-247,540
186,49	6648,269
186,71	-4,205
186,92	222,074
187,14	-299,647
187,36	170,040
187,58	161,770
187,79	-186,102
188,01	518,941
188,23	-370,895
188,45	-1,535
188,66	337,746
188,88	-3421,000
189,10	-2988,550
189,31	47,517
189,53	54,297
189,75	437,852
189,97	387,904
190,18	-389,893
190,40	958,559
190,62	-374,194
190,83	-436,099
191,05	244,762
191,27	100,443
191,49	441,225
191,70	-766,130
191,92	-664,025
192,14	-102,358
192,35	716,326
192,57	6301,571
192,79	-3,737
193,01	269,289
193,22	138,243
193,44	-107,602
193,66	155,417
193,87	71,424
194,09	-45,109
194,31	127,876
194,53	661,224
194,74	161,218
194,96	100,198
195,18	180,040
195,39	-472,704
195,61	-159,408
195,83	-393,380
196,04	158,226
196,26	-497,764
196,48	-57,300
196,70	465,318
196,91	212,368
197,13	198,367
197,35	-51,509
197,56	783,142
197,78	2277,276
198,00	1334,650
198,21	764,830
198,43	-1564,855
198,65	208,080
198,86	466,385
199,08	-14,574
199,30	308,006
199,51	-357,834
199,73	272,261
199,95	479,097
200,16	768,673
200,38	418,278
200,60	73,260
200,81	439,518
201,03	225,149
201,25	-1989,550
201,46	157,224
201,68	56,037
201,90	3662,614
202,11	-879,599
202,33	166,526
202,55	540,687
202,76	-153,495
202,98	536,429
203,20	185,793
203,41	-563,974
203,63	165,286
203,85	-173755,000
204,06	37,715
204,28	-158,446
204,50	144,932
204,71	369,002
204,93	367,640
205,15	320,045
205,36	-297,811
205,58	250,585
205,80	-267,361
206,01	97,076
206,23	210,636
206,45	363,332
206,66	174,263
206,88	46,798
207,10	347,852
207,31	455,437
207,53	162,157
207,75	147,554
207,96	786,231
208,18	-284,224
208,39	141,462
208,61	4835,857
208,83	-428,801
209,04	254,507
209,26	-423,295
209,48	216,610
209,69	319,444
209,91	553,564
210,13	86,105
210,34	215,872
210,56	281,056
210,77	-1899,646
210,99	120,710
211,21	13820,882
211,42	-216,869
211,64	-46,434
211,86	327,095
212,07	231,582
212,29	294,536
212,50	194,059
212,72	308,288
212,94	144,269
213,15	251,938
213,37	106,492
213,58	-71,962
213,80	-4084,107
214,02	17685,588
214,23	399,188
214,45	543,131
214,67	-1789,695
214,88	-196,493
215,10	-424,745
215,31	15,841
215,53	100,352
215,75	297,487
215,96	1638,230
216,18	621,901
216,39	225,389
216,61	611,255
216,83	410,067
217,04	2447,809
217,26	-18,782
217,47	233,324
217,69	326,424
217,91	-118,441
218,12	-128755,000
218,34	149,719
218,55	616,061
218,77	62,739
218,99	135,326
219,20	-240,715
219,42	410,297
219,63	-297,559
219,85	-127,399
220,06	-17,096
220,28	151,041
220,50	-15,860
220,71	132,558
220,93	5010,472
221,14	-2835,550
221,36	-79,264
221,58	-114,645
221,79	82,942
222,01	1241,853
222,22	1202,336
222,44	-322,978
222,65	175,977
222,87	623,462
223,09	185,259
223,30	53,219
223,52	112,444
223,73	208,894
223,95	7,683
224,16	310,010
224,38	629,277
224,60	95,222
224,81	290,383
225,03	130,898
225,24	276,801
225,46	34,477
225,67	11,240
225,89	94,313
226,10	558,599
226,32	749,240
226,54	55,237
226,75	-37,093
226,97	237,149
227,18	194,711
227,40	75,962
227,61	13,302
227,83	78,699
228,04	165,855
228,26	95,893
228,47	73,443
228,69	266,693
228,91	175,228
229,12	123,354
229,34	34,787
229,55	79,515
229,77	30,952
229,98	11,201
230,20	58,693
230,41	16,118
230,63	137,481
230,84	52,689
231,06	32,167
231,27	4,804
231,49	62,617
231,71	48,461
231,92	16,816
232,14	49,531
232,35	105,437
232,57	59,560
232,78	17,337
233,00	67,919
233,21	57,218
233,43	33,439
233,64	33,441
233,86	51,610
234,07	53,691
234,29	19,124
234,50	18,010
234,72	49,016
234,93	33,901
235,15	14,869
235,36	16,901
235,58	50,316
235,79	55,742
236,01	22,998
236,22	23,177
236,44	61,547
236,65	37,066
236,87	38,259
237,08	15,011
237,30	18,599
237,51	36,423
237,73	-5,457
237,94	18,970
238,16	22,635
238,37	27,427
238,59	25,281
238,80	21,567
239,02	17,228
239,23	29,087
239,45	2,328
239,66	26,320
239,88	40,647
240,09	23,615
240,31	13,882
240,52	-3,251
240,74	20,009
240,95	20,511
241,17	3,719
241,38	11,000
241,60	19,647
241,81	28,467
242,03	17,894
242,24	12,244
242,46	17,329
242,67	10,131
242,89	10,036
243,10	24,244
243,32	22,259
243,53	19,700
243,75	6,103
243,96	12,264
244,18	20,239
244,39	11,304
244,60	10,159
244,82	4,239
245,03	29,443
245,25	10,604
245,46	27,795
245,68	1,778
245,89	28,800
246,11	20,624
246,32	11,403
246,54	6,433
246,75	12,698
246,97	17,432
247,18	22,268
247,39	6,827
247,61	16,551
247,82	19,164
248,04	5,929
248,25	11,053
248,47	17,343
248,68	18,699
248,90	4,044
249,11	8,029
249,33	25,534
249,54	10,328
249,75	9,338
249,97	5,898
250,18	17,850
250,40	22,829
250,61	-6,850
250,83	4,090
251,04	0,522
251,25	16,798
251,47	6,090
251,68	13,770
251,90	12,052
252,11	19,762
252,33	4,001
252,54	8,614
252,76	7,238
252,97	2,813
253,18	1,072
253,40	6,881
253,61	6,131
253,83	15,781
254,04	12,876
254,25	8,506
254,47	8,431
254,68	9,403
254,90	5,817
255,11	7,311
255,33	11,282
255,54	5,165
255,75	6,222
255,97	6,956
256,18	8,413
256,40	11,416
256,61	7,600
256,82	1,928
257,04	16,813
257,25	3,855
257,47	10,785
257,68	7,572
257,89	10,945
258,11	12,315
258,32	11,333
258,54	9,178
258,75	13,567
258,96	11,567
259,18	3,051
259,39	5,544
259,61	13,865
259,82	1,879
260,03	8,485
260,25	7,571
260,46	9,400
260,68	4,548
260,89	4,923
261,10	5,873
261,32	9,398
261,53	5,233
261,75	9,471
261,96	-1,494
262,17	15,887
262,39	12,730
262,60	4,152
262,81	-2,697
263,03	14,221
263,24	13,966
263,46	2,668
263,67	1,188
263,88	7,972
264,10	10,659
264,31	-0,454
264,52	9,730
264,74	13,596
264,95	7,818
265,17	7,549
265,38	7,120
265,59	8,477
265,81	8,838
266,02	2,233
266,23	1,767
266,45	11,756
266,66	14,717
266,87	8,502
267,09	3,543
267,30	11,487
267,52	11,318
267,73	0,910
267,94	4,649
268,16	11,159
268,37	4,545
268,58	9,984
268,80	4,449
269,01	10,944
269,22	8,123
269,44	9,566
269,65	6,286
269,86	4,261
270,08	9,747
270,29	5,037
270,50	5,008
270,72	8,569
270,93	4,237
271,14	5,554
271,36	4,661
271,57	9,807
271,78	6,453
272,00	6,882
272,21	6,836
272,42	7,664
272,64	10,346
272,85	1,945
273,06	3,178
273,28	10,270
273,49	8,040
273,70	8,631
273,92	10,301
274,13	9,090
274,34	2,269
274,56	7,290
274,77	3,455
274,98	10,720
275,20	5,707
275,41	9,494
275,62	3,443
275,84	7,862
276,05	14,077
276,26	0,496
276,47	-1,554
276,69	11,634
276,90	8,520
277,11	5,672
277,33	4,130
277,54	9,017
277,75	9,140
277,97	4,016
278,18	6,026
278,39	13,355
278,61	3,878
278,82	6,139
279,03	6,252
279,24	8,281
279,46	5,255
279,67	8,172
279,88	4,646
280,10	10,871
280,31	2,204
280,52	5,628
280,73	1,123
280,95	9,553
281,16	11,089
281,37	6,324
281,59	6,725
281,80	13,954
282,01	5,160
282,22	5,921
282,44	0,318
282,65	16,305
282,86	7,891
283,08	5,600
283,29	4,839
283,50	5,794
283,71	5,228
283,93	5,083
284,14	6,586
284,35	8,165
284,56	7,125
284,78	1,745
284,99	7,938
285,20	13,560
285,42	7,204
285,63	3,266
285,84	-0,214
286,05	2,010
286,27	8,643
286,48	4,404
286,69	2,983
286,90	7,207
287,12	4,646
287,33	3,228
287,54	3,385
287,75	12,192
287,97	8,667
288,18	7,240
288,39	2,607
288,60	7,216
288,82	2,426
289,03	4,776
289,24	5,068
289,45	7,196
289,67	5,949
289,88	5,086
290,09	9,838
290,30	6,529
290,52	5,256
290,73	6,462
290,94	0,084
291,15	6,735
291,37	7,698
291,58	4,204
291,79	-0,639
292,00	10,207
292,21	8,017
292,43	6,000
292,64	2,173
292,85	3,751
293,06	11,586
293,28	4,313
293,49	3,274
293,70	9,718
293,91	5,171
294,12	5,167
294,34	8,048
294,55	5,867
294,76	6,609
294,97	8,869
295,19	3,357
295,40	10,103
295,61	7,328
295,82	2,914
296,03	5,155
296,25	4,953
296,46	2,686
296,67	0,455
296,88	2,305
297,09	6,611
297,31	5,056
297,52	9,015
297,73	1,744
297,94	7,190
298,15	8,252
298,37	4,499
298,58	6,311
298,79	6,834
299,00	3,531
299,21	5,374
299,43	2,020
299,64	9,066
299,85	5,512
300,06	3,280
300,27	3,372
300,49	10,980
300,70	6,189
300,91	3,801
301,12	4,749
301,33	6,058
301,54	7,100
301,76	6,494
301,97	5,361
302,18	4,753
302,39	6,788
302,60	14,243
302,82	5,183
303,03	10,216
303,24	7,768
303,45	7,742
303,66	4,641
303,87	3,486
304,09	7,536
304,30	4,595
304,51	4,611
304,72	2,948
304,93	8,471
305,14	5,483
305,36	2,222
305,57	2,380
305,78	5,716
305,99	5,689
306,20	5,367
306,41	3,004
306,62	4,056
306,84	4,592
307,05	2,473
307,26	4,168
307,47	12,130
307,68	5,322
307,89	3,787
308,11	6,290
308,32	4,512
308,53	4,544
308,74	3,251
308,95	7,285
309,16	9,499
309,37	8,002
309,59	4,218
309,80	6,409
310,01	5,115
310,22	6,868
310,43	1,910
310,64	8,787
310,85	6,693
311,06	2,252
311,28	4,177
311,49	3,608
311,70	11,922
311,91	2,262
312,12	1,873
312,33	6,287
312,54	5,824
312,75	4,226
312,97	2,351
313,18	5,593
313,39	2,338
313,60	4,487
313,81	4,388
314,02	5,926
314,23	5,621
314,44	2,291
314,65	4,087
314,87	2,334
315,08	5,060
315,29	7,285
315,50	8,061
315,71	8,277
315,92	10,734
316,13	4,270
316,34	6,689
316,55	7,455
316,77	1,566
316,98	4,102
317,19	4,158
317,40	5,361
317,61	11,567
317,82	3,716
318,03	1,025
318,24	4,536
318,45	9,104
318,66	4,352
318,87	2,200
319,09	9,565
319,30	4,244
319,51	6,711
319,72	5,574
319,93	8,331
320,14	9,283
320,35	5,795
320,56	3,974
320,77	3,408
320,98	9,999
321,19	4,737
321,40	4,297
321,62	8,193
321,83	4,339
322,04	3,035
322,25	7,304
322,46	9,673
322,67	6,638
322,88	5,107
323,09	3,991
323,30	10,918
323,51	7,562
323,72	5,346
323,93	1,685
324,14	4,605
324,35	2,377
324,56	-0,049
324,77	4,479
324,99	6,492
325,20	1,343
325,41	4,866
325,62	6,438
325,83	2,621
326,04	3,616
326,25	6,343
326,46	1,505
326,67	5,885
326,88	7,395
327,09	2,612
327,30	2,514
327,51	10,326
327,72	6,782
327,93	7,962
328,14	2,986
328,35	6,200
328,56	7,155
328,77	3,222
328,98	7,909
329,19	5,240
329,40	7,081
329,61	5,497
329,82	2,919
330,04	6,117
330,25	6,730
330,46	7,933
330,67	2,511
330,88	4,124
331,09	4,132
331,30	0,718
331,51	6,937
331,72	8,231
331,93	7,495
332,14	5,324
332,35	7,555
332,56	7,588
332,77	8,206
332,98	0,816
333,19	4,128
333,40	6,850
333,61	5,316
333,82	8,015
334,03	6,540
334,24	6,860
334,45	4,533
334,66	7,585
334,87	4,668
335,08	3,128
335,29	5,621
335,50	5,249
335,71	4,197
335,92	7,409
336,13	9,193
336,34	3,465
336,55	6,205
336,76	6,157
336,97	6,694
337,18	5,406
337,39	6,585
337,60	4,464
337,81	6,204
338,02	4,985
338,23	5,091
338,44	6,015
338,65	4,927
338,86	8,391
339,07	4,314
339,28	6,995
339,49	4,475
339,70	1,121
339,91	7,124
340,11	9,269
340,32	2,743
340,53	3,378
340,74	2,756
340,95	2,324
341,16	7,253
341,37	2,094
341,58	2,216
341,79	4,039
342,00	5,295
342,21	5,063
342,42	5,471
342,63	8,749
342,84	2,945
343,05	4,747
343,26	9,207
343,47	6,693
343,68	6,545
343,89	3,565
344,10	6,009
344,31	9,633
344,52	3,400
344,73	4,436
344,94	5,217
345,14	5,654
345,35	7,980
345,56	4,587
345,77	4,631
345,98	6,120
346,19	7,977
346,40	4,471
346,61	2,537
346,82	6,845
347,03	6,899
347,24	5,975
347,45	4,510
347,66	10,005
347,87	4,679
348,08	8,239
348,28	-0,426
348,49	6,844
348,70	7,299
348,91	5,267
349,12	1,228
349,33	20,550
349,54	9,234
349,75	6,501
349,96	3,169
350,17	5,291
350,38	7,778
350,59	6,433
350,80	4,247
351,00	12,790
351,21	7,573
351,42	6,849
351,63	1,438
351,84	6,239
352,05	8,342
352,26	3,084
352,47	6,163
352,68	6,467
352,89	7,625
353,09	9,114
353,30	-0,751
353,51	0,961
353,72	10,134
353,93	9,558
354,14	-0,183
354,35	6,883
354,56	9,952
354,77	6,626
354,98	2,484
355,18	6,966
355,39	13,009
355,60	3,668
355,81	6,632
356,02	7,643
356,23	5,998
356,44	6,149
356,65	7,687
356,85	10,470
357,06	8,162
357,27	6,452
357,48	3,000
357,69	8,726
357,90	4,341
358,11	1,366
358,32	4,208
358,52	9,600
358,73	7,831
358,94	5,059
359,15	7,012
359,36	7,456
359,57	4,432
359,78	5,967
359,98	3,965
360,19	2,562
360,40	7,963
360,61	9,401
360,82	4,133
361,03	12,181
361,24	7,248
361,44	5,205
361,65	4,422
361,86	4,239
362,07	5,935
362,28	2,741
362,49	1,432
362,70	6,163
362,90	10,987
363,11	3,384
363,32	5,549
363,53	7,656
363,74	13,219
363,95	8,170
364,15	4,097
364,36	10,493
364,57	8,225
364,78	4,133
364,99	7,679
365,20	6,935
365,40	7,177
365,61	4,253
365,82	8,875
366,03	7,156
366,24	9,401
366,45	4,441
366,65	5,502
366,86	6,703
367,07	5,210
367,28	5,342
367,49	2,971
367,69	11,509
367,90	6,143
368,11	7,908
368,32	4,344
368,53	6,481
368,73	7,859
368,94	2,552
369,15	6,130
369,36	10,361
369,57	9,721
369,78	7,526
369,98	8,079
370,19	11,576
370,40	2,975
370,61	3,886
370,82	5,017
371,02	6,404
371,23	10,631
371,44	5,305
371,65	4,654
371,85	10,281
372,06	2,721
372,27	5,667
372,48	5,847
372,69	3,318
372,89	5,118
373,10	2,646
373,31	4,695
373,52	5,799
373,73	11,709
373,93	4,950
374,14	5,326
374,35	12,121
374,56	9,372
374,76	6,336
374,97	4,290
375,18	8,425
375,39	6,623
375,60	8,012
375,80	6,719
376,01	7,180
376,22	7,492
376,43	4,709
376,63	3,925
376,84	5,004
377,05	8,382
377,26	3,744
377,46	2,207
377,67	5,903
377,88	4,851
378,09	5,892
378,29	1,043
378,50	6,378
378,71	9,374
378,92	1,692
379,12	6,621
379,33	5,091
379,54	5,419
379,75	7,342
379,95	3,077
380,16	9,188
380,37	10,856
380,58	6,402
380,78	6,324
380,99	4,477
381,20	6,542
381,41	4,613
381,61	8,495
381,82	4,591
382,03	6,050
382,24	6,891
382,44	7,383
382,65	6,832
382,86	5,538
383,06	5,670
383,27	4,400
383,48	6,576
383,69	8,022
383,89	7,066
384,10	5,052
384,31	6,252
384,51	11,234
384,72	6,123
384,93	6,612
385,14	6,660
385,34	8,279
385,55	5,501
385,76	4,677
385,96	6,806
386,17	6,273
386,38	8,258
386,59	9,120
386,79	5,873
387,00	11,070
387,21	9,081
387,41	6,912
387,62	1,275
387,83	11,177
388,03	3,368
388,24	3,167
388,45	9,504
388,66	5,180
388,86	8,459
389,07	2,811
389,28	13,928
389,48	6,494
389,69	3,041
389,90	2,854
390,10	6,622
390,31	8,461
390,52	1,960
390,72	5,320
390,93	6,002
391,14	7,562
391,34	5,223
391,55	6,262
391,76	10,787
391,96	10,030
392,17	4,094
392,38	10,681
392,58	9,087
392,79	6,796
393,00	2,505
393,20	5,010
393,41	6,943
393,62	5,898
393,82	8,665
394,03	5,643
394,24	4,415
394,44	10,614
394,65	5,196
394,86	1,001
395,06	10,328
395,27	5,389
395,48	3,780
395,68	7,457
395,89	7,910
396,10	12,612
396,30	2,155
396,51	1,213
396,72	3,975
396,92	3,342
397,13	9,580
397,34	2,301
397,54	6,023
397,75	3,382
397,95	4,044
398,16	4,978
398,37	6,019
398,57	3,407
398,78	6,923
398,99	9,426
399,19	8,983
399,40	13,607
399,60	1,703
399,81	6,486
400,02	10,750
400,22	12,430
400,43	5,480
400,64	4,496
400,84	3,150
401,05	7,761
401,25	8,111
401,46	7,496
401,67	6,348
401,87	4,018
402,08	0,499
402,29	6,440
402,49	11,009
402,70	8,528
402,90	4,930
403,11	4,491
403,32	6,783
403,52	5,748
403,73	6,232
403,93	6,834
404,14	14,011
404,35	7,563
404,55	3,256
404,76	3,601
404,96	6,273
405,17	11,208
405,38	9,752
405,58	4,122
405,79	10,899
405,99	9,453
406,20	2,876
406,40	0,737
406,61	13,211
406,82	6,793
407,02	7,700
407,23	5,090
407,43	4,431
407,64	2,861
407,85	4,889
408,05	1,513
408,26	15,934
408,46	10,785
408,67	2,161
408,87	3,138
409,08	4,264
409,29	12,224
409,49	5,599
409,70	6,601
409,90	8,641
410,11	7,503
410,31	7,903
410,52	2,862
410,72	4,139
410,93	8,451
411,14	3,246
411,34	2,620
411,55	6,705
411,75	10,476
411,96	6,426
412,16	5,508
412,37	3,088
412,57	9,260
412,78	6,162
412,99	2,620
413,19	6,315
413,40	5,542
413,60	3,240
413,81	6,422
414,01	6,622
414,22	5,110
414,42	2,264
414,63	2,041
414,83	9,413
415,04	13,558
415,24	7,174
415,45	4,637
415,65	3,597
415,86	9,445
416,07	3,793
416,27	6,819
416,48	12,307
416,68	11,742
416,89	-0,108
417,09	5,638
417,30	11,072
417,50	7,850
417,71	9,857
417,91	5,570
418,12	5,727
418,32	6,123
418,53	8,367
418,73	2,522
418,94	7,937
419,14	9,038
419,35	1,344
419,55	4,792
419,76	5,958
419,96	2,946
420,17	5,282
420,37	8,475
420,58	8,095
420,78	8,478
420,99	6,893
421,19	7,847
421,40	7,868
421,60	16,298
421,81	7,018
422,01	6,391
422,22	4,375
422,42	7,135
422,63	4,515
422,83	5,163
423,04	11,347
423,24	11,305
423,45	4,459
423,65	10,109
423,86	13,563
424,06	8,283
424,27	6,192
424,47	2,762
424,67	1,735
424,88	8,085
425,08	6,144
425,29	11,625
425,49	6,423
425,70	-1,426
425,90	5,273
426,11	3,877
426,31	9,264
426,52	6,264
426,72	0,631
426,93	4,148
427,13	10,137
427,33	6,392
427,54	5,634
427,74	9,154
427,95	10,698
428,15	2,858
428,36	7,801
428,56	4,598
428,77	11,102
428,97	7,471
429,18	2,677
429,38	3,557
429,58	8,710
429,79	10,443
429,99	5,706
430,20	-0,032
430,40	11,041
430,61	6,252
430,81	0,660
431,01	6,912
431,22	12,103
431,42	11,468
431,63	3,102
431,83	5,917
432,04	13,324
432,24	8,886
432,44	3,714
432,65	4,511
432,85	7,836
433,06	10,190
433,26	5,103
433,47	6,658
433,67	8,888
433,87	8,787
434,08	5,272
434,28	5,215
434,49	6,789
434,69	13,112
434,89	7,268
435,10	5,725
435,30	12,137
435,51	3,471
435,71	6,982
435,91	3,820
436,12	7,702
436,32	9,852
436,53	3,708
436,73	7,064
436,93	9,409
437,14	10,390
437,34	2,947
437,55	6,979
437,75	3,309
437,95	10,363
438,16	6,840
438,36	5,479
438,57	2,772
438,77	5,938
438,97	5,703
439,18	10,816
439,38	3,899
439,58	4,169
439,79	5,410
439,99	5,148
440,20	10,988
440,40	6,987
440,60	5,116
440,81	7,022
441,01	10,512
441,21	9,243
441,42	11,234
441,62	6,812
441,83	8,435
442,03	5,518
442,23	8,041
442,44	8,299
442,64	10,025
442,84	3,347
443,05	6,022
443,25	1,716
443,45	4,914
443,66	4,368
443,86	3,805
444,06	6,401
444,27	7,059
444,47	8,177
444,67	1,552
444,88	6,464
445,08	5,711
445,28	7,190
445,49	1,124
445,69	2,166
445,90	6,611
446,10	12,416
446,30	10,271
446,51	5,161
446,71	12,858
446,91	13,399
447,12	12,088
447,32	4,977
447,52	7,955
447,72	7,675
447,93	7,836
448,13	3,020
448,33	11,407
448,54	9,213
448,74	4,134
448,94	8,345
449,15	13,049
449,35	13,428
449,55	5,417
449,76	16,131
449,96	6,767
450,16	11,084
450,37	4,082
450,57	9,307
450,77	1,194
450,98	11,648
451,18	11,845
451,38	8,307
451,58	9,528
451,79	10,847
451,99	10,643
452,19	10,338
452,40	9,196
452,60	7,534
452,80	5,865
453,00	6,080
453,21	10,650
453,41	8,558
453,61	6,548
453,82	11,182
454,02	3,720
454,22	9,679
454,42	11,032
454,63	4,229
