Fichero De Datos De SpectraSuite
++++++++++++++++++++++++++++++++++++
Fecha: Wed Apr 22 13:03:55 CEST 2009
Usuario: evoflor
Presente Oscuro Del Espectro: Sí
La Referencia de Presente Del Espectro De: Sí
Muestreados de los componentes de Número de espectros: 1
Espectrómetros: USB4F02353
Tiempo de integración (usec): 500000 (USB4F02353)
Promedio de Espectros Hechos un: 5 (USB4F02353)
El Alisar Del Furgón: 0 (USB4F02353)
Párrafo de de Corregir del la del del de Eléctrica del obscuridad: Sí (USB4F02353)
Estrobo/Lámpara Permitido: No (USB4F02353)
Correct for Detector Non-linearity: No (USB4F02353)
Párrafo de de Corregir del la del del de Externa del luz: No (USB4F02353)
Procesado del espectro de Número de pixeles en: 3648
>>>>> Comienza Data<<<<< Espectral Procesado Del EL
177,79	384,560
178,00	384,560
178,22	384,560
178,44	2766,923
178,66	-386,180
178,88	430,261
179,09	18,255
179,31	399,496
179,53	925,728
179,75	358,464
179,96	1219,914
180,18	-391,108
180,40	768,822
180,62	263,156
180,83	-434,256
181,05	-2603,780
181,27	-154110,000
181,49	93,457
181,70	49,269
181,92	1284,822
182,14	610,572
182,36	118,337
182,58	-155,100
182,79	1447,366
183,01	-53,623
183,23	363,516
183,45	-161,262
183,66	-80,575
183,88	551,824
184,10	-4880,182
184,32	363,639
184,53	367,066
184,75	-269,249
184,97	16,599
185,18	-95,132
185,40	-641,394
185,62	151,745
185,84	53,515
186,05	266,471
186,27	-313,206
186,49	4473,462
186,71	33,243
186,92	90,580
187,14	-306,354
187,36	266,293
187,58	110,920
187,79	-60,502
188,01	366,167
188,23	-440,369
188,45	-26,383
188,66	266,116
188,88	-2032,909
189,10	-1568,100
189,31	-75,614
189,53	-34,106
189,75	522,068
189,97	412,731
190,18	-80,215
190,40	805,941
190,62	-143,350
190,83	-291,070
191,05	153,434
191,27	265,457
191,49	312,401
191,70	-697,644
191,92	-604,322
192,14	-102,496
192,35	700,027
192,57	4968,857
192,79	-36,167
193,01	335,117
193,22	124,222
193,44	-193,874
193,66	176,598
193,87	23,576
194,09	3,689
194,31	233,503
194,53	769,301
194,74	80,177
194,96	93,491
195,18	203,545
195,39	-337,757
195,61	-209,917
195,83	-493,500
196,04	195,479
196,26	-258,844
196,48	18,815
196,70	403,002
196,91	170,208
197,13	9,646
197,35	10,978
197,56	861,641
197,78	2016,493
198,00	586,783
198,21	818,010
198,43	-1414,012
198,65	165,580
198,86	243,561
199,08	201,344
199,30	257,308
199,51	-745,309
199,73	255,792
199,95	417,104
200,16	852,346
200,38	346,782
200,60	111,997
200,81	420,578
201,03	44,592
201,25	-2090,100
201,46	148,595
201,68	36,673
201,90	2172,955
202,11	-746,221
202,33	297,684
202,55	1532,625
202,76	-190,744
202,98	154,390
203,20	-187,067
203,41	-252,158
203,63	163,510
203,85	-193710,000
204,06	165,452
204,28	-126,289
204,50	272,400
204,71	345,424
204,93	102,480
205,15	117,199
205,36	-304,990
205,58	359,712
205,80	-246,708
206,01	62,827
206,23	181,148
206,45	303,941
206,66	127,685
206,88	-29,092
207,10	346,159
207,31	441,338
207,53	214,029
207,75	53,002
207,96	841,119
208,18	-244,556
208,39	123,062
208,61	3040,286
208,83	-542,104
209,04	455,268
209,26	-565,023
209,48	386,899
209,69	422,758
209,91	1171,318
210,13	79,548
210,34	48,450
210,56	237,305
210,77	-1610,315
210,99	154,826
211,21	8641,765
211,42	-244,686
211,64	-50,106
211,86	286,105
212,07	277,327
212,29	354,237
212,50	150,390
212,72	42,346
212,94	158,590
213,15	197,319
213,37	157,467
213,58	105,299
213,80	-746,786
214,02	11818,235
214,23	481,588
214,45	546,590
214,67	-1747,683
214,88	-453,725
215,10	-417,095
215,31	-58,493
215,53	188,659
215,75	161,583
215,96	1616,832
216,18	902,958
216,39	251,892
216,61	603,734
216,83	483,080
217,04	2651,798
217,26	16,306
217,47	211,848
217,69	329,600
217,91	96,881
218,12	-47010,000
218,34	117,901
218,55	692,865
218,77	54,480
218,99	137,285
219,20	-178,356
219,42	549,101
219,63	-253,753
219,85	-32,746
220,06	146,192
220,28	258,068
220,50	21,884
220,71	118,873
220,93	3960,566
221,14	-2567,100
221,36	178,566
221,58	29,073
221,79	253,293
222,01	987,155
222,22	984,276
222,44	-1140,337
222,65	137,268
222,87	794,476
223,09	156,153
223,30	68,210
223,52	173,180
223,73	192,008
223,95	62,408
224,16	124,763
224,38	412,109
224,60	199,619
224,81	38,074
225,03	134,042
225,24	349,502
225,46	96,030
225,67	47,053
225,89	-69,228
226,10	445,211
226,32	786,480
226,54	28,872
226,75	12,626
226,97	153,761
227,18	186,603
227,40	130,606
227,61	43,802
227,83	93,258
228,04	236,938
228,26	40,337
228,47	50,093
228,69	286,469
228,91	148,570
229,12	146,707
229,34	25,080
229,55	76,092
229,77	19,945
229,98	20,513
230,20	62,818
230,41	-11,178
230,63	141,785
230,84	146,894
231,06	29,424
231,27	31,716
231,49	82,308
231,71	30,269
231,92	27,200
232,14	26,682
232,35	92,561
232,57	70,004
232,78	46,354
233,00	47,396
233,21	40,078
233,43	18,490
233,64	0,557
233,86	56,394
234,07	32,051
234,29	20,141
234,50	26,697
234,72	68,612
234,93	9,085
235,15	40,268
235,36	19,413
235,58	64,639
235,79	63,894
236,01	32,503
236,22	7,706
236,44	53,100
236,65	38,242
236,87	28,462
237,08	0,748
237,30	-2,083
237,51	31,680
237,73	-2,837
237,94	3,102
238,16	32,171
238,37	10,998
238,59	16,163
238,80	20,568
239,02	14,030
239,23	34,583
239,45	-1,559
239,66	27,982
239,88	33,546
240,09	22,310
240,31	2,693
240,52	6,632
240,74	11,594
240,95	18,332
241,17	5,157
241,38	4,073
241,60	18,715
241,81	39,692
242,03	2,246
242,24	19,505
242,46	20,093
242,67	4,650
242,89	11,734
243,10	24,838
243,32	27,938
243,53	30,059
243,75	13,832
243,96	8,562
244,18	18,359
244,39	20,488
244,60	7,440
244,82	0,153
245,03	26,880
245,25	15,952
245,46	32,325
245,68	11,067
245,89	30,506
246,11	20,366
246,32	10,752
246,54	7,336
246,75	13,885
246,97	14,225
247,18	20,584
247,39	3,742
247,61	13,360
247,82	22,831
248,04	13,163
248,25	8,751
248,47	16,720
248,68	14,947
248,90	7,382
249,11	7,352
249,33	23,683
249,54	14,802
249,75	11,874
249,97	1,340
250,18	22,875
250,40	16,273
250,61	-5,755
250,83	5,764
251,04	5,086
251,25	14,681
251,47	4,589
251,68	10,931
251,90	13,427
252,11	13,401
252,33	3,865
252,54	10,915
252,76	8,675
252,97	4,726
253,18	2,927
253,40	2,109
253,61	6,757
253,83	12,540
254,04	9,767
254,25	6,976
254,47	2,471
254,68	10,823
254,90	10,353
255,11	9,626
255,33	9,098
255,54	3,202
255,75	11,778
255,97	8,160
256,18	5,471
256,40	10,043
256,61	11,470
256,82	4,044
257,04	13,940
257,25	5,037
257,47	8,405
257,68	2,617
257,89	13,819
258,11	14,516
258,32	9,417
258,54	8,598
258,75	18,250
258,96	18,488
259,18	8,562
259,39	5,079
259,61	16,086
259,82	8,142
260,03	9,364
260,25	3,976
260,46	8,178
260,68	6,974
260,89	4,690
261,10	11,589
261,32	9,123
261,53	5,786
261,75	9,119
261,96	2,089
262,17	16,320
262,39	14,755
262,60	3,630
262,81	0,010
263,03	14,188
263,24	12,289
263,46	4,602
263,67	3,796
263,88	9,736
264,10	12,637
264,31	3,826
264,52	8,147
264,74	12,801
264,95	10,935
265,17	6,766
265,38	6,849
265,59	13,545
265,81	14,066
266,02	1,005
266,23	3,461
266,45	15,462
266,66	10,937
266,87	9,469
267,09	3,987
267,30	12,351
267,52	15,468
267,73	7,533
267,94	5,622
268,16	11,166
268,37	8,031
268,58	8,729
268,80	5,250
269,01	11,257
269,22	13,579
269,44	11,936
269,65	7,251
269,86	6,625
270,08	11,839
270,29	3,718
270,50	3,890
270,72	11,294
270,93	2,164
271,14	4,355
271,36	8,189
271,57	11,397
271,78	9,100
272,00	9,831
272,21	10,769
272,42	8,905
272,64	8,544
272,85	4,847
273,06	4,243
273,28	10,380
273,49	8,835
273,70	11,430
273,92	9,569
274,13	9,967
274,34	4,908
274,56	5,991
274,77	5,811
274,98	10,953
275,20	7,103
275,41	12,147
275,62	5,153
275,84	6,429
276,05	19,555
276,26	2,018
276,47	2,908
276,69	11,496
276,90	9,880
277,11	5,852
277,33	7,535
277,54	15,393
277,75	8,871
277,97	3,747
278,18	6,130
278,39	11,393
278,61	6,433
278,82	7,782
279,03	7,379
279,24	7,961
279,46	7,654
279,67	11,097
279,88	6,031
280,10	12,132
280,31	4,218
280,52	6,708
280,73	1,194
280,95	12,542
281,16	11,190
281,37	6,936
281,59	8,282
281,80	16,171
282,01	8,280
282,22	4,743
282,44	5,134
282,65	15,804
282,86	8,883
283,08	4,023
283,29	7,542
283,50	6,272
283,71	10,399
283,93	8,929
284,14	9,317
284,35	7,004
284,56	8,499
284,78	3,493
284,99	5,439
285,20	12,552
285,42	8,789
285,63	3,721
285,84	3,361
286,05	5,057
286,27	7,589
286,48	5,599
286,69	2,608
286,90	6,776
287,12	4,508
287,33	3,855
287,54	4,981
287,75	11,902
287,97	10,663
288,18	6,577
288,39	3,249
288,60	9,168
288,82	6,858
289,03	7,223
289,24	9,593
289,45	11,621
289,67	7,296
289,88	7,902
290,09	8,028
290,30	7,943
290,52	4,828
290,73	6,574
290,94	0,474
291,15	7,682
291,37	10,717
291,58	5,508
291,79	3,929
292,00	8,133
292,21	8,702
292,43	4,816
292,64	3,278
292,85	4,666
293,06	13,098
293,28	5,606
293,49	1,643
293,70	8,279
293,91	5,770
294,12	5,740
294,34	6,015
294,55	7,490
294,76	7,719
294,97	6,656
295,19	4,247
295,40	8,003
295,61	7,816
295,82	3,176
296,03	8,680
296,25	8,837
296,46	3,661
296,67	2,878
296,88	0,512
297,09	10,571
297,31	7,525
297,52	7,176
297,73	4,890
297,94	7,219
298,15	7,859
298,37	5,994
298,58	6,691
298,79	7,850
299,00	4,669
299,21	4,369
299,43	4,334
299,64	11,889
299,85	7,011
300,06	4,675
300,27	4,858
300,49	10,496
300,70	8,445
300,91	5,570
301,12	4,058
301,33	10,091
301,54	5,640
301,76	7,353
301,97	5,168
302,18	8,489
302,39	10,116
302,60	14,798
302,82	4,721
303,03	11,834
303,24	8,709
303,45	6,640
303,66	6,342
303,87	3,796
304,09	10,410
304,30	4,113
304,51	5,144
304,72	3,712
304,93	8,549
305,14	7,751
305,36	3,885
305,57	3,160
305,78	8,138
305,99	7,197
306,20	6,128
306,41	5,107
306,62	5,454
306,84	2,418
307,05	3,555
307,26	8,718
307,47	13,976
307,68	6,760
307,89	4,914
308,11	8,491
308,32	7,154
308,53	5,737
308,74	6,481
308,95	6,388
309,16	10,056
309,37	9,000
309,59	2,734
309,80	7,082
310,01	7,628
310,22	9,643
310,43	3,446
310,64	7,955
310,85	8,522
311,06	6,336
311,28	7,043
311,49	6,154
311,70	11,031
311,91	4,406
312,12	4,080
312,33	7,965
312,54	8,548
312,75	4,761
312,97	3,790
313,18	6,639
313,39	2,099
313,60	3,676
313,81	4,999
314,02	9,616
314,23	8,758
314,44	3,668
314,65	5,759
314,87	3,993
315,08	4,611
315,29	5,462
315,50	8,090
315,71	8,881
315,92	12,661
316,13	6,753
316,34	8,818
316,55	10,856
316,77	4,244
316,98	4,653
317,19	2,591
317,40	8,547
317,61	12,400
317,82	4,798
318,03	3,734
318,24	5,768
318,45	11,044
318,66	7,078
318,87	4,819
319,09	9,303
319,30	7,672
319,51	8,976
319,72	6,891
319,93	9,906
320,14	9,235
320,35	7,979
320,56	4,773
320,77	4,710
320,98	12,166
321,19	6,568
321,40	5,854
321,62	7,471
321,83	5,957
322,04	6,872
322,25	6,235
322,46	13,653
322,67	11,456
322,88	7,430
323,09	6,394
323,30	11,919
323,51	11,361
323,72	10,518
323,93	5,132
324,14	4,894
324,35	3,122
324,56	3,595
324,77	4,973
324,99	5,688
325,20	0,841
325,41	9,403
325,62	7,337
325,83	2,275
326,04	6,664
326,25	7,998
326,46	2,355
326,67	7,015
326,88	8,639
327,09	3,622
327,30	4,935
327,51	6,913
327,72	10,883
327,93	8,648
328,14	1,730
328,35	6,305
328,56	8,810
328,77	6,371
328,98	8,724
329,19	6,209
329,40	9,778
329,61	6,132
329,82	3,981
330,04	7,307
330,25	5,552
330,46	7,963
330,67	5,957
330,88	6,502
331,09	7,393
331,30	6,293
331,51	7,074
331,72	6,742
331,93	8,925
332,14	5,200
332,35	6,517
332,56	8,391
332,77	8,526
332,98	2,554
333,19	3,029
333,40	7,965
333,61	6,268
333,82	7,582
334,03	9,774
334,24	7,860
334,45	7,379
334,66	10,617
334,87	7,217
335,08	3,053
335,29	7,003
335,50	4,371
335,71	1,737
335,92	9,583
336,13	8,778
336,34	3,389
336,55	8,092
336,76	11,601
336,97	6,152
337,18	4,277
337,39	6,302
337,60	7,928
337,81	6,732
338,02	4,662
338,23	5,556
338,44	5,574
338,65	6,933
338,86	7,994
339,07	5,090
339,28	7,104
339,49	8,785
339,70	2,777
339,91	7,155
340,11	12,577
340,32	6,167
340,53	5,473
340,74	3,990
340,95	4,761
341,16	8,228
341,37	1,935
341,58	6,677
341,79	6,626
342,00	6,738
342,21	4,071
342,42	5,721
342,63	7,854
342,84	4,932
343,05	8,005
343,26	7,344
343,47	9,126
343,68	5,619
343,89	4,420
344,10	5,450
344,31	10,786
344,52	6,191
344,73	2,723
344,94	3,474
345,14	9,464
345,35	10,193
345,56	5,918
345,77	5,226
345,98	7,112
346,19	5,361
346,40	4,189
346,61	5,607
346,82	5,470
347,03	7,777
347,24	7,550
347,45	1,827
347,66	11,536
347,87	6,544
348,08	9,432
348,28	1,518
348,49	5,831
348,70	8,630
348,91	5,643
349,12	1,148
349,33	21,049
349,54	4,758
349,75	7,737
349,96	6,724
350,17	7,154
350,38	4,216
350,59	9,538
350,80	5,132
351,00	8,993
351,21	9,886
351,42	5,802
351,63	4,148
351,84	9,302
352,05	9,633
352,26	6,255
352,47	4,620
352,68	9,919
352,89	10,481
353,09	9,993
353,30	2,625
353,51	6,508
353,72	9,840
353,93	8,715
354,14	5,215
354,35	8,090
354,56	12,584
354,77	6,574
354,98	3,237
355,18	7,618
355,39	10,860
355,60	5,896
355,81	7,135
356,02	8,822
356,23	9,219
356,44	6,004
356,65	8,470
356,85	14,773
357,06	9,209
357,27	7,712
357,48	3,875
357,69	6,049
357,90	6,621
358,11	2,793
358,32	6,779
358,52	9,899
358,73	8,929
358,94	2,820
359,15	7,498
359,36	6,364
359,57	6,500
359,78	5,424
359,98	4,210
360,19	5,098
360,40	7,616
360,61	8,170
360,82	8,269
361,03	12,511
361,24	11,069
361,44	4,544
361,65	6,607
361,86	5,135
362,07	7,385
362,28	7,837
362,49	4,358
362,70	8,449
362,90	7,926
363,11	4,635
363,32	3,366
363,53	7,808
363,74	12,434
363,95	9,927
364,15	7,285
364,36	11,638
364,57	6,855
364,78	5,802
364,99	5,955
365,20	8,926
365,40	12,637
365,61	6,427
365,82	10,779
366,03	10,317
366,24	9,463
366,45	6,331
366,65	6,625
366,86	8,201
367,07	8,285
367,28	4,251
367,49	4,223
367,69	12,456
367,90	6,515
368,11	5,822
368,32	5,420
368,53	10,629
368,73	8,919
368,94	4,088
369,15	6,379
369,36	12,462
369,57	8,808
369,78	5,939
369,98	7,843
370,19	13,280
370,40	5,462
370,61	4,762
370,82	3,503
371,02	10,200
371,23	10,288
371,44	7,141
371,65	5,971
371,85	8,068
372,06	4,789
372,27	6,288
372,48	7,131
372,69	5,513
372,89	7,795
373,10	6,135
373,31	6,804
373,52	7,374
373,73	10,506
373,93	5,566
374,14	9,466
374,35	12,370
374,56	10,503
374,76	5,921
374,97	8,458
375,18	9,059
375,39	6,536
375,60	10,020
375,80	4,454
376,01	8,942
376,22	9,200
376,43	6,650
376,63	11,169
376,84	7,322
377,05	9,119
377,26	5,124
377,46	4,543
377,67	9,597
377,88	8,999
378,09	9,762
378,29	4,658
378,50	7,658
378,71	9,713
378,92	5,710
379,12	7,382
379,33	7,561
379,54	3,992
379,75	8,916
379,95	4,823
380,16	9,836
380,37	11,795
380,58	7,938
380,78	11,157
380,99	6,863
381,20	4,872
381,41	7,003
381,61	9,489
381,82	8,127
382,03	10,730
382,24	8,370
382,44	8,022
382,65	7,909
382,86	6,571
383,06	8,758
383,27	6,933
383,48	7,132
383,69	9,807
383,89	11,512
384,10	8,570
384,31	10,436
384,51	12,261
384,72	10,814
384,93	5,861
385,14	9,654
385,34	9,889
385,55	7,307
385,76	8,456
385,96	17,809
386,17	10,800
386,38	13,596
386,59	4,827
386,79	11,782
387,00	14,569
387,21	13,893
387,41	12,658
387,62	13,623
387,83	17,391
388,03	10,662
388,24	5,804
388,45	14,213
388,66	12,752
388,86	12,626
389,07	10,533
389,28	18,940
389,48	14,270
389,69	13,374
389,90	8,268
390,10	13,248
390,31	16,297
390,52	9,235
390,72	11,525
390,93	15,355
391,14	11,299
391,34	12,980
391,55	14,665
391,76	19,983
391,96	14,635
392,17	11,133
392,38	17,250
392,58	16,503
392,79	15,108
393,00	11,357
393,20	13,352
393,41	13,232
393,62	16,386
393,82	15,475
394,03	15,963
394,24	17,007
394,44	21,578
394,65	15,130
394,86	15,445
395,06	22,670
395,27	17,046
395,48	16,366
395,68	18,710
395,89	18,312
396,10	20,483
396,30	16,696
396,51	14,635
396,72	18,921
396,92	19,071
397,13	22,314
397,34	17,797
397,54	23,958
397,75	20,703
397,95	18,098
398,16	18,231
398,37	22,164
398,57	21,619
398,78	23,500
398,99	26,669
399,19	24,820
399,40	26,680
399,60	20,715
399,81	26,287
400,02	28,513
400,22	26,503
400,43	19,431
400,64	22,246
400,84	19,418
401,05	27,182
401,25	29,568
401,46	26,526
401,67	26,919
401,87	26,062
402,08	21,804
402,29	21,773
402,49	30,428
402,70	28,427
402,90	23,970
403,11	27,564
403,32	27,965
403,52	25,218
403,73	31,551
403,93	31,269
404,14	35,046
404,35	27,444
404,55	23,927
404,76	29,310
404,96	29,308
405,17	36,346
405,38	33,231
405,58	29,409
405,79	30,142
405,99	35,901
406,20	33,194
406,40	25,359
406,61	33,170
406,82	36,067
407,02	34,022
407,23	29,834
407,43	33,226
407,64	28,736
407,85	32,374
408,05	29,409
408,26	43,699
408,46	39,642
408,67	28,710
408,87	33,723
409,08	33,578
409,29	46,184
409,49	36,106
409,70	34,121
409,90	38,742
410,11	39,647
410,31	39,820
410,52	34,192
410,72	34,516
410,93	37,527
411,14	36,453
411,34	35,363
411,55	38,832
411,75	40,526
411,96	40,196
412,16	39,731
412,37	36,265
412,57	39,020
412,78	41,298
412,99	37,488
413,19	42,454
413,40	41,953
413,60	32,690
413,81	39,472
414,01	40,714
414,22	38,937
414,42	36,977
414,63	38,478
414,83	43,409
415,04	46,213
415,24	40,639
415,45	42,893
415,65	42,490
415,86	40,237
416,07	40,604
416,27	40,148
416,48	45,494
416,68	46,395
416,89	39,013
417,09	43,800
417,30	47,585
417,50	42,255
417,71	45,923
417,91	45,102
418,12	44,620
418,32	42,966
418,53	40,710
418,73	42,508
418,94	40,905
419,14	43,738
419,35	40,112
419,55	45,864
419,76	48,716
419,96	43,615
420,17	39,174
420,37	45,065
420,58	47,760
420,78	46,391
420,99	44,581
421,19	50,385
421,40	44,583
421,60	52,025
421,81	42,003
422,01	44,366
422,22	50,476
422,42	52,100
422,63	43,897
422,83	42,060
423,04	47,596
423,24	55,252
423,45	42,184
423,65	47,888
423,86	49,670
424,06	48,682
424,27	45,648
424,47	43,075
424,67	46,376
424,88	49,630
425,08	43,392
425,29	53,266
425,49	47,752
425,70	41,887
425,90	46,284
426,11	43,460
426,31	46,064
426,52	46,307
426,72	46,611
426,93	44,738
427,13	49,059
427,33	47,217
427,54	50,482
427,74	51,225
427,95	55,289
428,15	43,644
428,36	48,984
428,56	40,817
428,77	51,401
428,97	49,216
429,18	50,367
429,38	42,241
429,58	51,296
429,79	49,106
429,99	45,533
430,20	42,206
430,40	50,096
430,61	49,756
430,81	45,212
431,01	50,577
431,22	52,090
431,42	50,921
431,63	44,049
431,83	46,739
432,04	49,021
432,24	52,082
432,44	47,412
432,65	47,114
432,85	44,458
433,06	48,081
433,26	44,096
433,47	43,881
433,67	44,536
433,87	46,090
434,08	43,774
434,28	44,457
434,49	45,713
434,69	49,944
434,89	46,440
435,10	43,641
435,30	53,157
435,51	41,384
435,71	45,201
435,91	44,565
436,12	48,357
436,32	46,464
436,53	45,906
436,73	45,539
436,93	51,057
437,14	50,143
437,34	46,114
437,55	48,710
437,75	49,076
437,95	49,229
438,16	48,657
438,36	51,576
438,57	44,143
438,77	45,541
438,97	45,508
439,18	51,831
439,38	46,344
439,58	46,803
439,79	48,019
439,99	43,339
440,20	55,119
440,40	48,646
440,60	45,394
440,81	53,043
441,01	55,229
441,21	49,850
441,42	50,354
441,62	53,971
441,83	50,101
442,03	49,609
442,23	46,982
442,44	48,652
442,64	52,030
442,84	46,700
443,05	46,929
443,25	44,473
443,45	51,599
443,66	48,805
443,86	49,594
444,06	46,957
444,27	47,280
444,47	52,027
444,67	47,799
444,88	48,618
445,08	49,866
445,28	51,272
445,49	44,384
445,69	42,348
445,90	48,810
446,10	52,249
446,30	48,770
446,51	46,470
446,71	58,563
446,91	52,686
447,12	56,938
447,32	49,830
447,52	51,971
447,72	53,791
447,93	47,046
448,13	40,976
448,33	56,212
448,54	53,069
448,74	45,172
448,94	47,844
449,15	54,040
449,35	58,239
449,55	51,056
449,76	53,492
449,96	54,088
450,16	54,730
450,37	49,833
450,57	49,866
450,77	47,131
450,98	50,319
