Fichero De Datos De SpectraSuite
++++++++++++++++++++++++++++++++++++
Fecha: Wed Apr 22 13:07:42 CEST 2009
Usuario: evoflor
Presente Oscuro Del Espectro: Sí
La Referencia de Presente Del Espectro De: Sí
Muestreados de los componentes de Número de espectros: 1
Espectrómetros: USB4F02353
Tiempo de integración (usec): 500000 (USB4F02353)
Promedio de Espectros Hechos un: 5 (USB4F02353)
El Alisar Del Furgón: 0 (USB4F02353)
Párrafo de de Corregir del la del del de Eléctrica del obscuridad: Sí (USB4F02353)
Estrobo/Lámpara Permitido: No (USB4F02353)
Correct for Detector Non-linearity: No (USB4F02353)
Párrafo de de Corregir del la del del de Externa del luz: No (USB4F02353)
Procesado del espectro de Número de pixeles en: 3648
>>>>> Comienza Data<<<<< Espectral Procesado Del EL
177,79	396,759
178,00	396,759
178,22	396,759
178,44	1847,308
178,66	-419,642
178,88	547,573
179,09	-154,021
179,31	441,730
179,53	803,080
179,75	287,937
179,96	746,509
180,18	-551,677
180,40	625,462
180,62	220,146
180,83	123,533
181,05	-1901,159
181,27	-163095,000
181,49	-29,772
181,70	419,596
181,92	1124,848
182,14	710,828
182,36	35,765
182,58	-226,950
182,79	1258,460
183,01	-68,326
183,23	123,138
183,45	2,169
183,66	74,801
183,88	535,853
184,10	-4503,545
184,32	127,463
184,53	343,634
184,75	-270,832
184,97	60,573
185,18	-228,750
185,40	-624,014
185,62	206,832
185,84	-125,338
186,05	156,272
186,27	-204,433
186,49	5753,654
186,71	54,682
186,92	131,917
187,14	-314,114
187,36	120,119
187,58	136,893
187,79	-128,868
188,01	537,241
188,23	-266,463
188,45	161,744
188,66	426,763
188,88	-3423,545
189,10	-2656,950
189,31	-15,691
189,53	97,254
189,75	403,398
189,97	232,673
190,18	-227,060
190,40	800,559
190,62	-82,103
190,83	-254,270
191,05	272,170
191,27	316,843
191,49	497,265
191,70	-481,226
191,92	-505,042
192,14	-39,338
192,35	707,149
192,57	4299,857
192,79	-34,272
193,01	204,938
193,22	156,983
193,44	-312,108
193,66	121,942
193,87	71,724
194,09	-89,331
194,31	238,811
194,53	706,259
194,74	100,476
194,96	9,457
195,18	170,394
195,39	-430,330
195,61	-167,794
195,83	-350,641
196,04	173,299
196,26	-50,729
196,48	56,989
196,70	388,658
196,91	2,066
197,13	164,544
197,35	-1,189
197,56	839,303
197,78	1902,201
198,00	712,552
198,21	446,578
198,43	-1366,831
198,65	217,790
198,86	75,162
199,08	177,689
199,30	228,128
199,51	-718,876
199,73	301,990
199,95	526,225
200,16	869,596
200,38	162,699
200,60	169,750
200,81	432,109
201,03	428,519
201,25	-1909,950
201,46	159,117
201,68	74,830
201,90	3808,977
202,11	-821,737
202,33	126,382
202,55	553,688
202,76	-163,953
202,98	116,707
203,20	-61,514
203,41	-645,237
203,63	238,332
203,85	-133395,000
204,06	29,687
204,28	-152,277
204,50	172,288
204,71	424,903
204,93	-171,240
205,15	146,973
205,36	-315,287
205,58	161,027
205,80	-256,342
206,01	61,286
206,23	142,700
206,45	293,571
206,66	159,551
206,88	14,798
207,10	407,489
207,31	411,517
207,53	221,700
207,75	115,425
207,96	928,321
208,18	-368,933
208,39	76,600
208,61	2602,714
208,83	-608,148
209,04	430,182
209,26	-291,221
209,48	318,877
209,69	386,444
209,91	775,997
210,13	92,880
210,34	30,981
210,56	220,355
210,77	-2233,819
210,99	84,206
211,21	1493,824
211,42	-217,073
211,64	-44,742
211,86	274,296
212,07	330,629
212,29	247,514
212,50	156,879
212,72	204,981
212,94	193,253
213,15	154,093
213,37	148,716
213,58	15,532
213,80	-2996,250
214,02	17217,353
214,23	437,217
214,45	611,459
214,67	-1604,817
214,88	-254,346
215,10	-372,702
215,31	-144,989
215,53	20,898
215,75	138,078
215,96	2103,075
216,18	28,099
216,39	289,423
216,61	475,972
216,83	406,674
217,04	1953,876
217,26	65,637
217,47	233,436
217,69	403,665
217,91	-9,781
218,12	-61395,000
218,34	204,581
218,55	735,796
218,77	137,729
218,99	167,029
219,20	-233,683
219,42	315,846
219,63	-184,638
219,85	-118,856
220,06	246,519
220,28	206,310
220,50	24,140
220,71	69,168
220,93	3756,509
221,14	-2017,950
221,36	-146,644
221,58	-47,809
221,79	268,511
222,01	1250,819
222,22	522,336
222,44	406,685
222,65	130,448
222,87	851,014
223,09	91,502
223,30	68,979
223,52	120,483
223,73	202,978
223,95	64,923
224,16	215,660
224,38	531,505
224,60	91,831
224,81	251,032
225,03	152,858
225,24	207,167
225,46	143,846
225,67	42,842
225,89	82,716
226,10	667,455
226,32	-113,640
226,54	18,557
226,75	-25,579
226,97	184,345
227,18	163,972
227,40	48,462
227,61	85,255
227,83	37,722
228,04	168,212
228,26	53,011
228,47	83,432
228,69	308,216
228,91	203,967
229,12	94,401
229,34	50,388
229,55	93,923
229,77	24,139
229,98	27,304
230,20	67,984
230,41	45,397
230,63	151,782
230,84	-11,894
231,06	66,382
231,27	15,527
231,49	73,098
231,71	52,377
231,92	36,501
232,14	13,739
232,35	123,372
232,57	49,229
232,78	36,495
233,00	101,563
233,21	77,550
233,43	3,248
233,64	32,731
233,86	56,126
234,07	49,667
234,29	15,030
234,50	41,183
234,72	47,398
234,93	33,728
235,15	30,843
235,36	33,983
235,58	57,785
235,79	48,758
236,01	18,463
236,22	20,166
236,44	51,572
236,65	28,729
236,87	17,148
237,08	5,460
237,30	-6,158
237,51	35,176
237,73	-1,200
237,94	17,922
238,16	40,672
238,37	15,305
238,59	20,866
238,80	19,418
239,02	6,040
239,23	21,562
239,45	5,644
239,66	25,719
239,88	38,583
240,09	19,758
240,31	5,253
240,52	7,972
240,74	18,080
240,95	15,819
241,17	6,029
241,38	5,518
241,60	7,611
241,81	36,975
242,03	12,162
242,24	4,285
242,46	17,341
242,67	9,515
242,89	10,737
243,10	14,966
243,32	16,395
243,53	24,003
243,75	12,067
243,96	8,709
244,18	23,962
244,39	16,672
244,60	11,501
244,82	5,343
245,03	24,512
245,25	20,205
245,46	29,175
245,68	4,313
245,89	29,023
246,11	18,753
246,32	12,872
246,54	8,862
246,75	16,609
246,97	12,879
247,18	23,064
247,39	0,393
247,61	16,620
247,82	17,753
248,04	6,333
248,25	9,257
248,47	22,191
248,68	10,079
248,90	4,410
249,11	10,677
249,33	24,044
249,54	5,816
249,75	8,934
249,97	3,517
250,18	18,070
250,40	12,194
250,61	-4,100
250,83	2,534
251,04	6,007
251,25	10,318
251,47	4,840
251,68	14,411
251,90	12,109
252,11	17,073
252,33	6,032
252,54	13,534
252,76	8,628
252,97	2,820
253,18	3,315
253,40	2,401
253,61	0,105
253,83	13,329
254,04	6,650
254,25	8,016
254,47	1,832
254,68	10,646
254,90	6,801
255,11	10,694
255,33	9,873
255,54	6,158
255,75	8,824
255,97	8,115
256,18	9,609
256,40	12,666
256,61	8,937
256,82	5,510
257,04	8,823
257,25	4,144
257,47	4,659
257,68	6,696
257,89	12,385
258,11	13,947
258,32	4,023
258,54	6,670
258,75	12,394
258,96	16,594
259,18	8,011
259,39	5,422
259,61	15,918
259,82	7,641
260,03	11,503
260,25	11,098
260,46	5,005
260,68	6,139
260,89	2,449
261,10	5,799
261,32	6,743
261,53	6,215
261,75	4,244
261,96	2,462
262,17	12,863
262,39	12,283
262,60	5,094
262,81	-0,074
263,03	12,315
263,24	9,381
263,46	5,790
263,67	3,987
263,88	5,976
264,10	7,707
264,31	4,903
264,52	7,503
264,74	10,051
264,95	6,534
265,17	6,528
265,38	7,921
265,59	8,866
265,81	10,973
266,02	2,159
266,23	2,694
266,45	15,539
266,66	9,294
266,87	9,580
267,09	7,567
267,30	10,299
267,52	12,161
267,73	5,490
267,94	6,774
268,16	9,225
268,37	7,005
268,58	9,841
268,80	5,170
269,01	2,839
269,22	8,311
269,44	9,172
269,65	5,143
269,86	8,145
270,08	10,652
270,29	2,052
270,50	5,993
270,72	11,554
270,93	4,205
271,14	1,725
271,36	5,951
271,57	12,490
271,78	8,647
272,00	8,661
272,21	8,296
272,42	6,980
272,64	12,016
272,85	6,057
273,06	4,961
273,28	8,992
273,49	8,620
273,70	12,504
273,92	7,460
274,13	5,231
274,34	4,505
274,56	12,409
274,77	4,921
274,98	8,386
275,20	10,454
275,41	9,430
275,62	7,481
275,84	6,078
276,05	14,599
276,26	2,758
276,47	-1,690
276,69	12,540
276,90	8,027
277,11	8,912
277,33	5,003
277,54	11,564
277,75	10,417
277,97	4,605
278,18	4,859
278,39	10,865
278,61	7,201
278,82	5,872
279,03	6,529
279,24	8,449
279,46	6,191
279,67	9,981
279,88	6,636
280,10	13,255
280,31	2,565
280,52	8,888
280,73	6,599
280,95	7,715
281,16	11,729
281,37	5,243
281,59	10,415
281,80	13,492
282,01	7,141
282,22	3,901
282,44	3,393
282,65	14,252
282,86	10,454
283,08	4,023
283,29	5,278
283,50	8,044
283,71	7,586
283,93	8,249
284,14	10,157
284,35	6,405
284,56	10,178
284,78	3,799
284,99	9,753
285,20	11,538
285,42	7,239
285,63	5,427
285,84	1,761
286,05	4,388
286,27	6,187
286,48	5,688
286,69	6,116
286,90	8,170
287,12	8,464
287,33	2,213
287,54	2,031
287,75	8,950
287,97	6,734
288,18	4,878
288,39	4,377
288,60	7,335
288,82	2,600
289,03	4,613
289,24	5,130
289,45	10,358
289,67	5,980
289,88	4,096
290,09	8,141
290,30	6,425
290,52	8,484
290,73	2,644
290,94	0,418
291,15	7,143
291,37	7,676
291,58	5,176
291,79	5,317
292,00	9,518
292,21	6,816
292,43	3,708
292,64	2,287
292,85	5,442
293,06	10,850
293,28	5,500
293,49	1,352
293,70	12,764
293,91	6,286
294,12	6,385
294,34	5,283
294,55	7,941
294,76	6,981
294,97	8,560
295,19	2,904
295,40	7,012
295,61	6,874
295,82	1,552
296,03	7,557
296,25	5,468
296,46	5,706
296,67	2,953
296,88	1,448
297,09	7,647
297,31	5,746
297,52	6,191
297,73	1,061
297,94	7,513
298,15	8,977
298,37	5,124
298,58	6,741
298,79	8,540
299,00	5,451
299,21	4,192
299,43	3,628
299,64	11,670
299,85	8,161
300,06	3,095
300,27	3,402
300,49	10,569
300,70	6,296
300,91	6,868
301,12	4,231
301,33	11,703
301,54	6,086
301,76	7,767
301,97	4,627
302,18	8,215
302,39	7,120
302,60	14,630
302,82	6,440
303,03	11,593
303,24	7,008
303,45	6,231
303,66	5,244
303,87	4,831
304,09	8,090
304,30	5,352
304,51	3,991
304,72	5,992
304,93	9,166
305,14	5,630
305,36	0,030
305,57	2,990
305,78	7,966
305,99	5,199
306,20	6,323
306,41	5,204
306,62	5,627
306,84	3,986
307,05	3,432
307,26	7,770
307,47	10,735
307,68	5,958
307,89	4,303
308,11	7,883
308,32	5,206
308,53	6,664
308,74	1,606
308,95	5,998
309,16	8,423
309,37	11,319
309,59	3,999
309,80	8,863
310,01	8,061
310,22	8,269
310,43	6,108
310,64	6,690
310,85	6,429
311,06	3,171
311,28	5,119
311,49	6,251
311,70	10,015
311,91	1,520
312,12	2,469
312,33	7,152
312,54	8,237
312,75	7,078
312,97	3,171
313,18	7,776
313,39	6,578
313,60	5,162
313,81	5,095
314,02	8,893
314,23	9,802
314,44	3,114
314,65	6,363
314,87	3,566
315,08	4,686
315,29	6,568
315,50	8,164
315,71	9,888
315,92	8,475
316,13	5,036
316,34	5,848
316,55	6,897
316,77	1,141
316,98	5,274
317,19	3,002
317,40	7,568
317,61	10,718
317,82	2,258
318,03	3,928
318,24	5,366
318,45	10,052
318,66	7,320
318,87	2,351
319,09	6,501
319,30	7,349
319,51	7,649
319,72	6,073
319,93	9,956
320,14	9,441
320,35	9,875
320,56	2,364
320,77	3,764
320,98	11,759
321,19	3,737
321,40	4,508
321,62	7,393
321,83	6,115
322,04	7,776
322,25	4,784
322,46	10,843
322,67	8,328
322,88	6,883
323,09	3,130
323,30	8,639
323,51	10,622
323,72	6,761
323,93	4,724
324,14	5,281
324,35	3,812
324,56	2,407
324,77	4,899
324,99	6,716
325,20	2,915
325,41	5,226
325,62	6,320
325,83	3,467
326,04	4,024
326,25	7,830
326,46	2,002
326,67	6,030
326,88	6,744
327,09	3,838
327,30	3,116
327,51	7,426
327,72	9,061
327,93	7,771
328,14	2,090
328,35	5,045
328,56	7,810
328,77	5,339
328,98	7,254
329,19	7,121
329,40	7,521
329,61	5,350
329,82	0,935
330,04	5,488
330,25	4,710
330,46	5,866
330,67	2,231
330,88	6,319
331,09	7,843
331,30	5,072
331,51	5,909
331,72	7,339
331,93	8,555
332,14	6,717
332,35	7,203
332,56	8,124
332,77	11,024
332,98	0,846
333,19	5,446
333,40	7,304
333,61	5,083
333,82	8,715
334,03	7,612
334,24	7,414
334,45	4,805
334,66	6,295
334,87	6,157
335,08	4,007
335,29	3,345
335,50	2,175
335,71	1,972
335,92	7,413
336,13	7,914
336,34	3,872
336,55	6,501
336,76	9,027
336,97	4,876
337,18	3,565
337,39	5,283
337,60	5,736
337,81	9,929
338,02	6,195
338,23	5,745
338,44	5,809
338,65	6,959
338,86	6,707
339,07	4,983
339,28	9,042
339,49	4,367
339,70	3,028
339,91	7,260
340,11	11,583
340,32	5,108
340,53	3,650
340,74	1,102
340,95	5,143
341,16	5,424
341,37	4,624
341,58	4,158
341,79	1,929
342,00	3,969
342,21	5,251
342,42	5,557
342,63	7,799
342,84	3,290
343,05	7,408
343,26	9,238
343,47	7,770
343,68	4,124
343,89	5,763
344,10	6,067
344,31	8,406
344,52	4,073
344,73	4,912
344,94	7,357
345,14	6,596
345,35	6,503
345,56	5,973
345,77	6,965
345,98	6,728
346,19	7,298
346,40	7,483
346,61	7,028
346,82	6,033
347,03	8,452
347,24	9,681
347,45	1,966
347,66	9,546
347,87	5,207
348,08	12,970
348,28	1,660
348,49	7,781
348,70	8,547
348,91	5,901
349,12	1,775
349,33	22,329
349,54	6,938
349,75	6,247
349,96	6,014
350,17	7,725
350,38	2,725
350,59	7,886
350,80	4,343
351,00	7,466
351,21	11,265
351,42	5,006
351,63	2,316
351,84	8,575
352,05	8,375
352,26	6,311
352,47	4,298
352,68	8,352
352,89	9,172
353,09	7,197
353,30	3,257
353,51	6,238
353,72	9,511
353,93	8,072
354,14	6,109
354,35	5,415
354,56	7,739
354,77	4,816
354,98	1,442
355,18	6,824
355,39	11,965
355,60	4,337
355,81	4,436
356,02	7,407
356,23	7,423
356,44	5,794
356,65	8,051
356,85	12,551
357,06	8,970
357,27	7,598
357,48	3,995
357,69	8,731
357,90	7,137
358,11	2,357
358,32	3,616
358,52	10,192
358,73	7,156
358,94	6,530
359,15	6,324
359,36	9,233
359,57	4,922
359,78	7,615
359,98	2,979
360,19	2,808
360,40	5,882
360,61	7,911
360,82	5,025
361,03	12,895
361,24	6,484
361,44	2,517
361,65	6,153
361,86	2,739
362,07	7,262
362,28	4,919
362,49	2,714
362,70	6,375
362,90	9,004
363,11	3,151
363,32	4,506
363,53	7,133
363,74	11,235
363,95	8,382
364,15	5,074
364,36	11,725
364,57	6,658
364,78	4,821
364,99	3,112
365,20	7,859
365,40	9,286
365,61	4,026
365,82	6,713
366,03	9,385
366,24	7,901
366,45	2,095
366,65	4,859
366,86	4,027
367,07	8,014
367,28	5,234
367,49	6,271
367,69	9,395
367,90	7,095
368,11	5,277
368,32	5,671
368,53	9,208
368,73	8,215
368,94	5,137
369,15	7,842
369,36	9,228
369,57	7,763
369,78	7,125
369,98	5,944
370,19	11,434
370,40	4,757
370,61	7,061
370,82	3,563
371,02	9,050
371,23	10,925
371,44	7,046
371,65	6,844
371,85	9,926
372,06	7,101
372,27	5,272
372,48	7,100
372,69	6,732
372,89	8,544
373,10	6,682
373,31	6,739
373,52	8,280
373,73	11,806
373,93	7,521
374,14	4,235
374,35	7,760
374,56	7,278
374,76	9,373
374,97	4,514
375,18	8,147
375,39	6,381
375,60	8,831
375,80	5,169
376,01	6,199
376,22	10,685
376,43	4,922
376,63	3,656
376,84	4,477
377,05	5,720
377,26	4,772
377,46	5,613
377,67	4,144
377,88	6,236
378,09	8,596
378,29	4,332
378,50	5,612
378,71	5,436
378,92	5,680
379,12	5,869
379,33	5,348
379,54	4,677
379,75	7,880
379,95	6,344
380,16	6,284
380,37	11,183
380,58	7,750
380,78	7,855
380,99	3,498
381,20	6,773
381,41	6,748
381,61	6,400
381,82	9,539
382,03	4,878
382,24	6,191
382,44	7,799
382,65	7,511
382,86	8,891
383,06	8,393
383,27	6,932
383,48	6,484
383,69	9,236
383,89	6,230
384,10	5,827
384,31	7,771
384,51	9,922
384,72	9,379
384,93	4,512
385,14	6,568
385,34	5,589
385,55	3,935
385,76	4,114
385,96	11,589
386,17	7,532
386,38	10,737
386,59	6,878
386,79	4,566
387,00	11,369
387,21	10,021
387,41	5,615
387,62	5,135
387,83	13,330
388,03	7,164
388,24	0,207
388,45	6,611
388,66	9,591
388,86	6,719
389,07	4,982
389,28	11,755
389,48	6,028
389,69	3,929
389,90	6,300
390,10	6,882
390,31	11,831
390,52	0,538
390,72	3,629
390,93	7,167
391,14	5,685
391,34	4,331
391,55	12,310
391,76	12,292
391,96	7,551
392,17	6,689
392,38	10,874
392,58	8,931
392,79	9,408
393,00	3,746
393,20	5,952
393,41	6,455
393,62	9,441
393,82	4,388
394,03	6,850
394,24	5,205
394,44	10,896
394,65	7,470
394,86	6,485
395,06	8,690
395,27	3,677
395,48	5,235
395,68	6,498
395,89	8,394
396,10	11,805
396,30	5,644
396,51	3,370
396,72	14,915
396,92	5,034
397,13	7,572
397,34	2,939
397,54	7,946
397,75	5,961
397,95	4,864
398,16	8,311
398,37	5,240
398,57	6,884
398,78	10,706
398,99	8,794
399,19	11,053
399,40	10,992
399,60	5,042
399,81	9,270
400,02	8,768
400,22	10,728
400,43	5,917
400,64	7,731
400,84	4,454
401,05	12,767
401,25	10,579
401,46	10,181
401,67	12,101
401,87	6,944
402,08	4,877
402,29	5,457
402,49	12,904
402,70	16,792
402,90	6,867
403,11	7,570
403,32	9,694
403,52	7,593
403,73	10,884
403,93	11,383
404,14	14,889
404,35	8,855
404,55	6,377
404,76	5,594
404,96	8,774
405,17	12,196
405,38	14,065
405,58	9,575
405,79	14,659
405,99	13,245
406,20	8,526
406,40	7,246
406,61	13,632
406,82	11,664
407,02	12,837
407,23	11,447
407,43	11,291
407,64	10,573
407,85	10,295
408,05	4,890
408,26	19,594
408,46	17,535
408,67	6,483
408,87	12,838
409,08	10,716
409,29	15,536
409,49	14,384
409,70	15,676
409,90	15,055
410,11	14,477
410,31	14,318
410,52	9,949
410,72	11,148
410,93	16,905
411,14	12,035
411,34	10,836
411,55	16,238
411,75	16,523
411,96	13,856
412,16	16,245
412,37	14,419
412,57	15,945
412,78	15,989
412,99	13,167
413,19	15,456
413,40	15,224
413,60	11,070
413,81	9,708
414,01	15,008
414,22	13,288
414,42	13,431
414,63	11,220
414,83	19,917
415,04	22,897
415,24	14,796
415,45	14,315
415,65	19,378
415,86	18,113
416,07	13,850
416,27	16,615
416,48	19,674
416,68	21,483
416,89	10,456
417,09	13,505
417,30	20,517
417,50	19,517
417,71	19,352
417,91	17,151
418,12	14,618
418,32	13,989
418,53	18,505
418,73	17,862
418,94	17,275
419,14	18,551
419,35	14,512
419,55	17,664
419,76	21,668
419,96	14,216
420,17	13,293
420,37	18,867
420,58	24,085
420,78	21,180
420,99	18,361
421,19	22,757
421,40	22,013
421,60	22,814
421,81	18,168
422,01	19,137
422,22	20,044
422,42	21,839
422,63	19,150
422,83	16,012
423,04	24,664
423,24	27,275
423,45	17,110
423,65	23,568
423,86	24,195
424,06	23,139
424,27	19,062
424,47	17,570
424,67	17,937
424,88	24,837
425,08	20,693
425,29	26,526
425,49	18,747
425,70	15,910
425,90	21,383
426,11	19,658
426,31	18,964
426,52	23,193
426,72	19,373
426,93	19,427
427,13	26,089
427,33	22,285
427,54	24,353
427,74	25,633
427,95	26,488
428,15	17,248
428,36	21,285
428,56	22,004
428,77	24,196
428,97	21,603
429,18	22,976
429,38	23,214
429,58	27,125
429,79	22,765
429,99	17,948
430,20	16,203
430,40	28,497
430,61	19,340
430,81	18,262
431,01	24,794
431,22	26,925
431,42	30,073
431,63	21,091
431,83	20,363
432,04	22,871
432,24	28,063
432,44	18,920
432,65	22,936
432,85	19,082
433,06	23,022
433,26	21,158
433,47	18,378
433,67	23,961
433,87	23,718
434,08	17,160
434,28	19,779
434,49	19,801
434,69	25,317
434,89	20,467
435,10	22,866
435,30	27,133
435,51	19,442
435,71	20,883
435,91	22,186
436,12	21,984
436,32	23,813
436,53	25,984
436,73	20,768
436,93	22,528
437,14	24,257
437,34	23,312
437,55	20,767
437,75	23,912
437,95	30,653
438,16	20,058
438,36	20,463
438,57	24,171
438,77	20,085
438,97	22,994
439,18	25,205
439,38	24,380
439,58	18,962
439,79	21,821
439,99	18,781
440,20	30,218
440,40	27,801
440,60	19,575
440,81	24,375
441,01	27,745
441,21	27,515
441,42	26,119
441,62	24,805
441,83	23,793
442,03	23,640
442,23	27,947
442,44	22,880
442,64	26,257
442,84	20,601
443,05	20,582
443,25	19,652
443,45	24,529
443,66	24,284
443,86	18,987
444,06	19,716
444,27	20,328
444,47	26,583
444,67	20,916
444,88	26,151
445,08	25,298
445,28	23,711
445,49	20,420
445,69	23,499
445,90	25,922
446,10	27,967
446,30	21,454
446,51	18,365
446,71	29,513
446,91	27,312
447,12	30,333
447,32	23,621
447,52	22,449
447,72	25,917
447,93	21,065
448,13	19,247
448,33	30,586
448,54	32,363
448,74	20,487
448,94	23,568
449,15	30,945
449,35	28,241
449,55	26,372
449,76	28,880
449,96	25,055
450,16	27,866
450,37	18,663
450,57	23,832
450,77	19,199
450,98	29,525
451,18	24,633
451,38	23,324
451,58	21,282
451,79	24,564
451,99	27,650
452,19	21,825
452,40	27,870
452,60	20,987
