Fichero De Datos De SpectraSuite
++++++++++++++++++++++++++++++++++++
Fecha: Wed Apr 22 13:11:30 CEST 2009
Usuario: evoflor
Presente Oscuro Del Espectro: Sí
La Referencia de Presente Del Espectro De: Sí
Muestreados de los componentes de Número de espectros: 1
Espectrómetros: USB4F02353
Tiempo de integración (usec): 500000 (USB4F02353)
Promedio de Espectros Hechos un: 5 (USB4F02353)
El Alisar Del Furgón: 0 (USB4F02353)
Párrafo de de Corregir del la del del de Eléctrica del obscuridad: Sí (USB4F02353)
Estrobo/Lámpara Permitido: No (USB4F02353)
Correct for Detector Non-linearity: No (USB4F02353)
Párrafo de de Corregir del la del del de Externa del luz: No (USB4F02353)
Procesado del espectro de Número de pixeles en: 3648
>>>>> Comienza Data<<<<< Espectral Procesado Del EL
177,79	322,551
178,00	322,551
178,22	322,551
178,44	2589,725
178,66	-302,825
178,88	445,163
179,09	-226,532
179,31	137,974
179,53	699,799
179,75	154,925
179,96	544,267
180,18	-407,492
180,40	645,334
180,62	329,801
180,83	-367,624
181,05	-1472,378
181,27	-177435,000
181,49	-25,728
181,70	450,519
181,92	1005,761
182,14	737,756
182,36	84,063
182,58	223,650
182,79	1338,549
183,01	-141,080
183,23	160,438
183,45	-224,723
183,66	15,332
183,88	477,265
184,10	-3782,455
184,32	283,255
184,53	330,542
184,75	-285,215
184,97	51,035
185,18	-375,818
185,40	-541,514
185,62	139,730
185,84	37,631
186,05	282,091
186,27	-229,883
186,49	5370,577
186,71	96,081
186,92	171,022
187,14	-228,437
187,36	144,691
187,58	112,765
187,79	-23,457
188,01	428,648
188,23	-181,918
188,45	69,236
188,66	-55,647
188,88	-2555,182
189,10	-2458,350
189,31	39,701
189,53	156,268
189,75	343,943
189,97	149,365
190,18	-45,773
190,40	450,794
190,62	-267,846
190,83	-352,208
191,05	140,437
191,27	218,957
191,49	160,730
191,70	-537,187
191,92	-451,144
192,14	-64,862
192,35	804,867
192,57	4863,857
192,79	206,499
193,01	200,414
193,22	31,137
193,44	-344,258
193,66	93,588
193,87	140,974
194,09	-38,341
194,31	215,308
194,53	731,014
194,74	111,992
194,96	-21,694
195,18	141,758
195,39	-475,290
195,61	-186,729
195,83	-280,076
196,04	175,057
196,26	8,367
196,48	-12,512
196,70	356,332
196,91	105,538
197,13	178,063
197,35	115,573
197,56	797,322
197,78	1821,157
198,00	642,902
198,21	157,937
198,43	-1764,157
198,65	163,767
198,86	353,363
199,08	204,049
199,30	182,460
199,51	-560,375
199,73	350,692
199,95	419,146
200,16	734,365
200,38	257,346
200,60	158,110
200,81	283,587
201,03	186,236
201,25	-1558,350
201,46	144,132
201,68	6,065
201,90	3684,886
202,11	-605,095
202,33	145,664
202,55	-527,062
202,76	-66,058
202,98	455,174
203,20	-56,899
203,41	-630,711
203,63	199,390
203,85	-117135,000
204,06	-58,155
204,28	-178,157
204,50	152,912
204,71	434,337
204,93	-250,920
205,15	219,985
205,36	-268,709
205,58	195,461
205,80	-219,204
206,01	96,379
206,23	93,003
206,45	321,989
206,66	205,465
206,88	55,739
207,10	227,352
207,31	373,291
207,53	118,671
207,75	88,439
207,96	1290,560
208,18	-229,070
208,39	116,783
208,61	5481,000
208,83	-442,145
209,04	187,227
209,26	-87,719
209,48	148,777
209,69	364,573
209,91	684,578
210,13	24,785
210,34	179,019
210,56	209,525
210,77	-1744,370
210,99	151,177
211,21	5196,176
211,42	-257,715
211,64	2,885
211,86	362,578
212,07	305,831
212,29	322,734
212,50	145,590
212,72	114,750
212,94	128,577
213,15	222,523
213,37	155,812
213,58	-28,237
213,80	-3315,536
214,02	13719,706
214,23	427,254
214,45	640,770
214,67	-660,183
214,88	-42,735
215,10	-350,414
215,31	-176,561
215,53	-200,148
215,75	228,757
215,96	1722,578
216,18	280,775
216,39	155,403
216,61	491,561
216,83	780,067
217,04	1508,258
217,26	65,540
217,47	183,708
217,69	309,494
217,91	-44,420
218,12	-119835,000
218,34	142,586
218,55	606,724
218,77	83,404
218,99	149,835
219,20	-239,619
219,42	347,309
219,63	53,443
219,85	-238,606
220,06	270,519
220,28	304,651
220,50	36,580
220,71	35,303
220,93	4502,547
221,14	-2926,350
221,36	154,618
221,58	89,755
221,79	161,586
222,01	808,060
222,22	1196,941
222,44	-8,596
222,65	80,815
222,87	605,140
223,09	138,698
223,30	81,438
223,52	231,937
223,73	152,829
223,95	21,739
224,16	180,278
224,38	356,481
224,60	21,800
224,81	88,016
225,03	209,290
225,24	316,449
225,46	85,440
225,67	49,794
225,89	129,758
226,10	496,491
226,32	1131,480
226,54	33,962
226,75	16,669
226,97	181,115
227,18	242,068
227,40	73,263
227,61	83,007
227,83	46,938
228,04	147,996
228,26	41,688
228,47	47,180
228,69	354,940
228,91	145,814
229,12	104,042
229,34	40,608
229,55	102,040
229,77	14,567
229,98	3,473
230,20	81,173
230,41	14,385
230,63	115,936
230,84	63,121
231,06	16,132
231,27	19,548
231,49	56,507
231,71	25,677
231,92	16,581
232,14	40,845
232,35	56,345
232,57	50,244
232,78	-2,344
233,00	59,284
233,21	45,690
233,43	2,003
233,64	23,485
233,86	47,948
234,07	51,818
234,29	8,428
234,50	30,884
234,72	46,655
234,93	36,795
235,15	10,899
235,36	17,909
235,58	44,462
235,79	51,330
236,01	23,364
236,22	11,687
236,44	57,663
236,65	30,194
236,87	19,966
237,08	-1,550
237,30	-3,337
237,51	20,854
237,73	-8,587
237,94	21,919
238,16	27,692
238,37	16,210
238,59	19,109
238,80	17,624
239,02	9,975
239,23	27,638
239,45	4,170
239,66	29,104
239,88	40,657
240,09	21,452
240,31	8,875
240,52	6,816
240,74	26,938
240,95	18,742
241,17	4,275
241,38	6,862
241,60	14,437
241,81	30,051
242,03	10,673
242,24	14,104
242,46	23,805
242,67	16,261
242,89	10,426
243,10	20,114
243,32	20,192
243,53	17,484
243,75	6,183
243,96	11,676
244,18	19,663
244,39	13,732
244,60	8,344
244,82	8,276
245,03	24,717
245,25	16,523
245,46	28,828
245,68	9,902
245,89	29,230
246,11	9,144
246,32	4,649
246,54	4,975
246,75	13,447
246,97	14,454
247,18	22,515
247,39	2,979
247,61	12,570
247,82	13,874
248,04	5,314
248,25	5,759
248,47	11,242
248,68	16,823
248,90	2,148
249,11	10,568
249,33	22,180
249,54	11,170
249,75	6,867
249,97	4,310
250,18	18,383
250,40	19,004
250,61	-4,161
250,83	6,718
251,04	3,928
251,25	16,967
251,47	4,233
251,68	11,085
251,90	13,325
252,11	8,980
252,33	8,148
252,54	8,805
252,76	10,929
252,97	4,769
253,18	3,457
253,40	8,105
253,61	3,570
253,83	12,676
254,04	11,706
254,25	8,691
254,47	7,205
254,68	7,068
254,90	7,331
255,11	9,152
255,33	10,327
255,54	10,238
255,75	2,870
255,97	8,244
256,18	0,975
256,40	12,157
256,61	6,273
256,82	2,711
257,04	13,636
257,25	3,530
257,47	5,150
257,68	3,707
257,89	12,990
258,11	13,253
258,32	10,500
258,54	9,223
258,75	17,404
258,96	14,534
259,18	6,357
259,39	7,094
259,61	13,994
259,82	7,763
260,03	12,016
260,25	7,696
260,46	9,404
260,68	6,137
260,89	2,966
261,10	7,577
261,32	8,958
261,53	6,134
261,75	6,998
261,96	4,372
262,17	9,132
262,39	11,704
262,60	5,743
262,81	-0,368
263,03	14,981
263,24	13,893
263,46	2,384
263,67	3,678
263,88	8,834
264,10	9,107
264,31	4,859
264,52	9,999
264,74	11,041
264,95	5,772
265,17	8,303
265,38	5,970
265,59	8,058
265,81	11,974
266,02	2,873
266,23	3,151
266,45	13,802
266,66	12,363
266,87	9,799
267,09	8,320
267,30	11,676
267,52	10,166
267,73	1,291
267,94	5,359
268,16	9,931
268,37	4,511
268,58	10,804
268,80	2,388
269,01	6,624
269,22	8,857
269,44	6,733
269,65	9,202
269,86	4,188
270,08	9,607
270,29	6,630
270,50	6,861
270,72	13,861
270,93	5,526
271,14	1,905
271,36	7,343
271,57	13,015
271,78	6,683
272,00	8,906
272,21	7,639
272,42	10,754
272,64	9,409
272,85	4,405
273,06	5,223
273,28	8,400
273,49	9,622
273,70	9,386
273,92	7,211
274,13	12,123
274,34	3,625
274,56	7,257
274,77	7,304
274,98	10,572
275,20	5,745
275,41	9,325
275,62	8,904
275,84	4,777
276,05	14,562
276,26	5,753
276,47	2,834
276,69	11,025
276,90	8,986
277,11	5,501
277,33	6,839
277,54	9,473
277,75	8,765
277,97	2,132
278,18	2,577
278,39	6,717
278,61	2,868
278,82	5,836
279,03	8,837
279,24	9,653
279,46	5,757
279,67	9,454
279,88	4,514
280,10	11,898
280,31	3,923
280,52	7,116
280,73	4,059
280,95	8,350
281,16	13,760
281,37	7,381
281,59	10,251
281,80	13,303
282,01	8,076
282,22	3,930
282,44	5,195
282,65	16,023
282,86	11,592
283,08	7,032
283,29	7,850
283,50	6,565
283,71	7,065
283,93	7,627
284,14	8,415
284,35	3,125
284,56	7,999
284,78	2,115
284,99	9,510
285,20	13,533
285,42	7,632
285,63	6,983
285,84	1,051
286,05	7,671
286,27	8,016
286,48	4,645
286,69	7,312
286,90	5,786
287,12	7,115
287,33	4,843
287,54	4,516
287,75	8,122
287,97	6,409
288,18	5,767
288,39	5,967
288,60	7,448
288,82	7,476
289,03	5,194
289,24	8,093
289,45	9,258
289,67	7,760
289,88	4,776
290,09	7,658
290,30	9,186
290,52	4,961
290,73	4,876
290,94	0,251
291,15	8,380
291,37	7,109
291,58	6,031
291,79	4,808
292,00	7,358
292,21	9,197
292,43	6,435
292,64	2,203
292,85	4,825
293,06	9,314
293,28	5,393
293,49	2,960
293,70	9,025
293,91	2,950
294,12	5,789
294,34	7,632
294,55	7,621
294,76	6,374
294,97	6,582
295,19	3,788
295,40	8,372
295,61	8,857
295,82	2,839
296,03	8,346
296,25	6,844
296,46	3,020
296,67	-0,525
296,88	3,142
297,09	7,940
297,31	7,675
297,52	4,952
297,73	4,692
297,94	8,026
298,15	8,304
298,37	6,265
298,58	6,288
298,79	7,700
299,00	3,457
299,21	5,931
299,43	3,675
299,64	11,814
299,85	7,155
300,06	1,041
300,27	3,298
300,49	9,372
300,70	6,605
300,91	6,156
301,12	4,528
301,33	9,992
301,54	4,893
301,76	7,180
301,97	2,806
302,18	6,820
302,39	9,154
302,60	13,072
302,82	5,259
303,03	12,820
303,24	6,537
303,45	7,624
303,66	3,346
303,87	3,982
304,09	7,777
304,30	7,027
304,51	4,542
304,72	3,781
304,93	7,955
305,14	6,844
305,36	4,029
305,57	4,105
305,78	7,379
305,99	4,822
306,20	4,223
306,41	4,739
306,62	4,954
306,84	4,875
307,05	5,584
307,26	6,277
307,47	9,088
307,68	6,078
307,89	7,721
308,11	8,793
308,32	5,920
308,53	6,877
308,74	3,943
308,95	4,852
309,16	8,496
309,37	6,276
309,59	2,658
309,80	6,733
310,01	7,384
310,22	7,080
310,43	2,925
310,64	8,550
310,85	5,795
311,06	5,320
311,28	4,742
311,49	6,637
311,70	9,796
311,91	2,264
312,12	2,894
312,33	7,126
312,54	6,947
312,75	7,631
312,97	2,007
313,18	9,396
313,39	4,653
313,60	5,521
313,81	5,142
314,02	6,362
314,23	8,085
314,44	3,305
314,65	5,128
314,87	1,734
315,08	7,805
315,29	6,783
315,50	6,555
315,71	8,999
315,92	11,029
316,13	5,965
316,34	6,836
316,55	10,806
316,77	5,327
316,98	5,148
317,19	3,846
317,40	6,612
317,61	7,731
317,82	3,167
318,03	2,075
318,24	4,989
318,45	7,774
318,66	6,419
318,87	2,471
319,09	6,307
319,30	5,834
319,51	9,171
319,72	8,399
319,93	7,859
320,14	10,729
320,35	8,720
320,56	4,274
320,77	3,681
320,98	12,342
321,19	5,743
321,40	6,783
321,62	8,506
321,83	5,373
322,04	5,672
322,25	6,742
322,46	13,491
322,67	8,761
322,88	7,350
323,09	6,253
323,30	9,923
323,51	11,200
323,72	7,667
323,93	3,421
324,14	6,314
324,35	0,745
324,56	1,723
324,77	6,781
324,99	5,514
325,20	2,256
325,41	6,221
325,62	5,932
325,83	3,021
326,04	6,948
326,25	6,058
326,46	4,726
326,67	4,387
326,88	6,742
327,09	4,315
327,30	3,832
327,51	8,229
327,72	8,581
327,93	7,526
328,14	2,191
328,35	3,934
328,56	7,558
328,77	4,719
328,98	7,683
329,19	7,432
329,40	9,596
329,61	6,256
329,82	2,121
330,04	6,541
330,25	5,786
330,46	7,986
330,67	4,454
330,88	5,900
331,09	7,921
331,30	5,787
331,51	3,419
331,72	6,957
331,93	8,790
332,14	4,812
332,35	4,429
332,56	5,221
332,77	8,340
332,98	1,344
333,19	2,948
333,40	6,482
333,61	7,108
333,82	7,502
334,03	6,222
334,24	11,339
334,45	6,680
334,66	8,984
334,87	6,711
335,08	7,556
335,29	5,093
335,50	2,200
335,71	3,465
335,92	7,967
336,13	7,833
336,34	3,118
336,55	6,791
336,76	9,768
336,97	8,103
337,18	3,721
337,39	4,785
337,60	9,352
337,81	6,868
338,02	6,111
338,23	6,068
338,44	7,016
338,65	5,535
338,86	5,606
339,07	4,103
339,28	5,845
339,49	8,615
339,70	2,634
339,91	6,757
340,11	10,802
340,32	4,319
340,53	2,844
340,74	4,149
340,95	4,294
341,16	7,498
341,37	3,183
341,58	2,772
341,79	3,767
342,00	5,650
342,21	3,649
342,42	7,106
342,63	8,424
342,84	4,788
343,05	8,057
343,26	4,807
343,47	6,329
343,68	4,065
343,89	4,664
344,10	4,563
344,31	8,760
344,52	6,188
344,73	3,774
344,94	4,470
345,14	3,395
345,35	7,644
345,56	6,910
345,77	6,738
345,98	6,808
346,19	5,729
346,40	5,304
346,61	5,828
346,82	5,299
347,03	5,776
347,24	6,034
347,45	4,849
347,66	12,242
347,87	5,902
348,08	6,458
348,28	3,398
348,49	8,882
348,70	6,693
348,91	8,102
349,12	4,112
349,33	20,116
349,54	6,279
349,75	6,618
349,96	6,394
350,17	6,437
350,38	3,308
350,59	8,203
350,80	6,554
351,00	9,624
351,21	9,855
351,42	4,806
351,63	5,779
351,84	7,543
352,05	7,688
352,26	5,048
352,47	1,961
352,68	7,267
352,89	8,588
353,09	7,079
353,30	3,706
353,51	3,240
353,72	9,628
353,93	9,502
354,14	3,240
354,35	6,195
354,56	12,844
354,77	5,938
354,98	3,174
355,18	9,438
355,39	10,943
355,60	5,865
355,81	4,493
356,02	7,285
356,23	6,754
356,44	4,382
356,65	8,049
356,85	13,426
357,06	11,142
357,27	9,651
357,48	1,084
357,69	7,844
357,90	9,198
358,11	2,993
358,32	4,241
358,52	9,368
358,73	5,381
358,94	4,044
359,15	9,632
359,36	8,106
359,57	4,647
359,78	7,369
359,98	5,258
360,19	3,258
360,40	8,230
360,61	9,433
360,82	6,033
361,03	11,267
361,24	12,723
361,44	4,058
361,65	7,301
361,86	1,878
362,07	5,753
362,28	5,125
362,49	3,260
362,70	6,551
362,90	10,195
363,11	5,819
363,32	6,168
363,53	6,368
363,74	12,373
363,95	9,093
364,15	7,842
364,36	12,804
364,57	6,516
364,78	3,690
364,99	5,484
365,20	7,975
365,40	9,255
365,61	3,677
365,82	8,076
366,03	6,738
366,24	5,268
366,45	3,573
366,65	6,122
366,86	6,280
367,07	7,410
367,28	5,316
367,49	6,388
367,69	10,452
367,90	4,129
368,11	3,786
368,32	4,221
368,53	8,141
368,73	7,803
368,94	6,875
369,15	5,554
369,36	10,753
369,57	9,723
369,78	6,436
369,98	9,438
370,19	11,285
370,40	5,644
370,61	6,655
370,82	7,634
371,02	9,296
371,23	10,054
371,44	4,424
371,65	6,967
371,85	10,853
372,06	7,442
372,27	6,963
372,48	5,758
372,69	7,981
372,89	6,294
373,10	4,068
373,31	6,834
373,52	7,281
373,73	9,327
373,93	6,724
374,14	6,081
374,35	8,002
374,56	10,014
374,76	7,900
374,97	7,673
375,18	9,622
375,39	8,606
375,60	7,671
375,80	7,592
376,01	6,844
376,22	10,157
376,43	5,992
376,63	7,122
376,84	7,695
377,05	10,494
377,26	2,755
377,46	3,627
377,67	6,291
377,88	9,496
378,09	7,674
378,29	6,021
378,50	7,448
378,71	9,256
378,92	4,410
379,12	8,168
379,33	7,527
379,54	4,644
379,75	9,666
379,95	6,653
380,16	6,312
380,37	12,083
380,58	5,906
380,78	8,414
380,99	7,241
381,20	5,965
381,41	5,792
381,61	8,467
381,82	7,739
382,03	7,753
382,24	8,208
382,44	7,797
382,65	8,305
382,86	6,535
383,06	9,916
383,27	6,930
383,48	9,299
383,69	11,146
383,89	9,289
384,10	8,500
384,31	9,117
384,51	12,950
384,72	12,310
384,93	4,675
385,14	9,326
385,34	8,475
385,55	5,341
385,76	5,982
385,96	14,748
386,17	11,623
386,38	10,381
386,59	12,119
386,79	10,632
387,00	9,995
387,21	12,289
387,41	9,017
387,62	6,512
387,83	15,039
388,03	9,548
388,24	2,670
388,45	6,422
388,66	10,564
388,86	10,878
389,07	4,134
389,28	11,922
389,48	9,760
389,69	7,522
389,90	8,560
390,10	11,017
390,31	11,546
390,52	6,743
390,72	8,390
390,93	11,010
391,14	9,188
391,34	10,159
391,55	9,983
391,76	11,684
391,96	10,891
392,17	6,974
392,38	10,872
392,58	13,762
392,79	12,304
393,00	4,411
393,20	6,499
393,41	10,729
393,62	11,175
393,82	9,000
394,03	8,316
394,24	10,728
394,44	11,827
394,65	8,059
394,86	7,159
395,06	12,510
395,27	8,995
395,48	9,314
395,68	9,517
395,89	8,487
396,10	14,533
396,30	9,853
396,51	5,015
396,72	10,558
396,92	8,744
397,13	11,791
397,34	5,835
397,54	9,760
397,75	7,536
397,95	8,284
398,16	10,668
398,37	11,945
398,57	9,665
398,78	10,513
398,99	13,453
399,19	14,132
399,40	13,845
399,60	4,907
399,81	13,591
400,02	14,561
400,22	12,467
400,43	9,135
400,64	15,318
400,84	10,976
401,05	13,316
401,25	12,014
401,46	12,315
401,67	14,956
401,87	13,945
402,08	7,458
402,29	8,214
402,49	15,772
402,70	15,184
402,90	8,765
403,11	9,570
403,32	16,338
403,52	11,432
403,73	10,816
403,93	11,639
404,14	17,055
404,35	14,829
404,55	7,551
404,76	12,548
404,96	14,065
405,17	13,767
405,38	15,632
405,58	9,573
405,79	16,949
405,99	14,885
406,20	13,348
406,40	8,676
406,61	16,500
406,82	12,388
407,02	16,288
407,23	12,813
407,43	12,695
407,64	14,044
407,85	10,703
408,05	8,471
408,26	21,868
408,46	19,011
408,67	8,471
408,87	7,490
409,08	9,586
409,29	16,091
409,49	15,081
409,70	13,204
409,90	15,053
410,11	18,172
410,31	19,063
410,52	15,946
410,72	14,992
410,93	18,385
411,14	15,458
411,34	11,444
411,55	14,636
411,75	18,703
411,96	15,566
412,16	14,396
412,37	16,310
412,57	16,472
412,78	15,775
412,99	12,269
413,19	15,899
413,40	15,078
413,60	10,191
413,81	10,054
414,01	14,302
414,22	11,753
414,42	11,500
414,63	10,199
414,83	17,632
415,04	20,624
415,24	16,088
415,45	16,320
415,65	12,258
415,86	13,428
416,07	14,813
416,27	19,042
416,48	20,454
416,68	22,841
416,89	11,443
417,09	14,986
417,30	21,462
417,50	16,691
417,71	15,955
417,91	18,101
418,12	12,906
418,32	16,232
418,53	14,286
418,73	11,945
418,94	14,511
419,14	16,965
419,35	8,998
419,55	16,947
419,76	16,596
419,96	12,906
420,17	11,945
420,37	14,327
420,58	20,691
420,78	21,214
420,99	17,787
421,19	18,560
421,40	17,928
421,60	18,423
421,81	14,843
422,01	17,211
422,22	16,709
422,42	17,765
422,63	12,633
422,83	11,721
423,04	20,592
423,24	23,431
423,45	13,520
423,65	17,529
423,86	20,507
424,06	18,734
424,27	15,964
424,47	14,809
424,67	16,278
424,88	14,613
425,08	13,243
425,29	21,117
425,49	12,100
425,70	11,083
425,90	18,654
426,11	17,118
426,31	17,267
426,52	16,500
426,72	13,753
426,93	14,188
427,13	20,449
427,33	13,518
427,54	18,964
427,74	19,330
427,95	23,647
428,15	13,461
428,36	16,308
428,56	15,830
428,77	17,302
428,97	14,842
429,18	15,662
429,38	16,299
429,58	21,398
429,79	18,634
429,99	14,938
430,20	7,637
430,40	22,323
430,61	12,978
430,81	13,722
431,01	17,469
431,22	15,097
431,42	21,895
431,63	13,664
431,83	13,471
432,04	17,709
432,24	26,095
432,44	13,438
432,65	14,539
432,85	11,654
433,06	19,557
433,26	14,820
433,47	14,675
433,67	17,005
433,87	12,481
434,08	11,691
434,28	15,520
434,49	15,051
434,69	24,209
434,89	12,816
435,10	17,009
435,30	19,993
435,51	14,782
435,71	16,281
435,91	13,452
436,12	14,539
436,32	17,201
436,53	17,709
436,73	16,010
436,93	17,273
437,14	16,539
437,34	18,642
437,55	14,335
437,75	20,926
437,95	21,308
438,16	18,097
438,36	14,947
438,57	14,766
438,77	14,496
438,97	18,416
439,18	18,457
439,38	13,112
439,58	16,304
439,79	16,046
439,99	14,946
440,20	20,219
440,40	19,104
440,60	16,057
440,81	13,567
441,01	18,786
441,21	21,448
441,42	20,519
441,62	20,806
441,83	18,204
442,03	17,509
442,23	18,283
442,44	12,010
442,64	19,647
442,84	12,584
443,05	19,199
443,25	14,198
443,45	17,879
443,66	14,815
443,86	11,234
444,06	17,410
444,27	11,531
444,47	16,850
444,67	17,587
444,88	19,501
445,08	18,539
445,28	17,748
445,49	16,791
445,69	13,409
445,90	19,206
446,10	25,853
446,30	18,972
446,51	17,153
446,71	24,353
446,91	24,943
447,12	23,109
447,32	16,264
447,52	19,977
447,72	20,466
447,93	20,164
448,13	10,983
448,33	22,102
448,54	20,285
448,74	12,438
448,94	21,130
449,15	23,136
449,35	21,833
449,55	20,208
449,76	22,258
449,96	20,774
450,16	19,074
450,37	16,997
450,57	19,593
450,77	15,422
450,98	18,339
451,18	21,548
451,38	18,978
451,58	22,183
451,79	18,558
451,99	22,309
452,19	15,109
