Fichero De Datos De SpectraSuite
++++++++++++++++++++++++++++++++++++
Fecha: Wed Apr 22 13:10:22 CEST 2009
Usuario: evoflor
Presente Oscuro Del Espectro: Sí
La Referencia de Presente Del Espectro De: Sí
Muestreados de los componentes de Número de espectros: 1
Espectrómetros: USB4F02353
Tiempo de integración (usec): 500000 (USB4F02353)
Promedio de Espectros Hechos un: 5 (USB4F02353)
El Alisar Del Furgón: 0 (USB4F02353)
Párrafo de de Corregir del la del del de Eléctrica del obscuridad: Sí (USB4F02353)
Estrobo/Lámpara Permitido: No (USB4F02353)
Correct for Detector Non-linearity: No (USB4F02353)
Párrafo de de Corregir del la del del de Externa del luz: No (USB4F02353)
Procesado del espectro de Número de pixeles en: 3648
>>>>> Comienza Data<<<<< Espectral Procesado Del EL
177,79	354,912
178,00	354,912
178,22	354,912
178,44	1705,275
178,66	-459,363
178,88	376,482
179,09	-140,085
179,31	154,296
179,53	801,300
179,75	383,795
179,96	229,483
180,18	-704,985
180,40	603,567
180,62	216,233
180,83	-83,388
181,05	-2124,634
181,27	-126520,000
181,49	-104,826
181,70	216,615
181,92	413,807
182,14	676,566
182,36	-0,994
182,58	-419,200
182,79	998,750
183,01	-159,225
183,23	203,739
183,45	-203,754
183,66	164,956
183,88	924,235
184,10	-3511,273
184,32	77,030
184,53	210,145
184,75	-438,855
184,97	47,496
185,18	-210,752
185,40	-846,250
185,62	198,898
185,84	-51,921
186,05	259,809
186,27	-110,506
186,49	5835,385
186,71	131,033
186,92	170,399
187,14	-216,023
187,36	136,293
187,58	18,845
187,79	-107,477
188,01	408,377
188,23	-471,932
188,45	145,305
188,66	287,589
188,88	-2807,636
189,10	-1562,200
189,31	-50,034
189,53	124,124
189,75	510,500
189,97	254,692
190,18	276,481
190,40	474,235
190,62	-144,131
190,83	-422,996
191,05	103,847
191,27	340,914
191,49	364,406
191,70	-681,827
191,92	-667,966
192,14	-111,563
192,35	686,525
192,57	4026,286
192,79	112,891
193,01	197,553
193,22	87,323
193,44	-308,055
193,66	126,130
193,87	136,017
194,09	-146,485
194,31	141,207
194,53	758,881
194,74	217,129
194,96	5,269
195,18	171,928
195,39	-421,689
195,61	-158,183
195,83	-349,391
196,04	109,401
196,26	-445,829
196,48	2,718
196,70	468,032
196,91	189,472
197,13	124,354
197,35	-103,845
197,56	806,873
197,78	2139,701
198,00	551,189
198,21	727,767
198,43	-1337,326
198,65	138,027
198,86	205,827
199,08	-39,607
199,30	381,822
199,51	-324,169
199,73	260,086
199,95	393,366
200,16	368,923
200,38	360,782
200,60	131,698
200,81	378,844
201,03	248,424
201,25	-1904,200
201,46	181,385
201,68	66,654
201,90	3550,455
202,11	-390,153
202,33	201,293
202,55	951,500
202,76	-97,391
202,98	246,411
203,20	-179,904
203,41	-244,316
203,63	185,227
203,85	-182320,000
204,06	166,172
204,28	-98,843
204,50	184,898
204,71	438,198
204,93	-435,040
205,15	69,337
205,36	-340,000
205,58	410,403
205,80	-126,512
206,01	111,222
206,23	123,772
206,45	287,843
206,66	119,044
206,88	41,479
207,10	265,045
207,31	361,881
207,53	40,057
207,75	39,378
207,96	1105,373
208,18	-295,768
208,39	73,876
208,61	4514,857
208,83	-492,692
209,04	290,193
209,26	39,078
209,48	208,588
209,69	253,419
209,91	865,270
210,13	70,437
210,34	151,622
210,56	239,880
210,77	-1697,795
210,99	125,641
211,21	8342,353
211,42	-203,095
211,64	-56,854
211,86	221,800
212,07	230,954
212,29	330,533
212,50	177,392
212,72	112,769
212,94	62,715
213,15	181,874
213,37	149,003
213,58	-59,024
213,80	-4004,286
214,02	11518,824
214,23	355,693
214,45	488,590
214,67	-94,146
214,88	-47,047
215,10	-303,556
215,31	-106,943
215,53	-176,773
215,75	423,513
215,96	1942,981
216,18	1059,437
216,39	199,750
216,61	429,520
216,83	681,339
217,04	2928,315
217,26	21,161
217,47	202,736
217,69	360,979
217,91	47,371
218,12	-86920,000
218,34	105,872
218,55	581,485
218,77	34,220
218,99	98,818
219,20	-231,711
219,42	435,701
219,63	-64,435
219,85	-219,168
220,06	-84,538
220,28	276,173
220,50	167,914
220,71	83,911
220,93	4306,038
221,14	-2687,200
221,36	85,048
221,58	-53,309
221,79	236,610
222,01	1827,759
222,22	1163,947
222,44	-155,955
222,65	125,940
222,87	588,951
223,09	135,235
223,30	78,645
223,52	176,117
223,73	155,794
223,95	61,577
224,16	125,402
224,38	378,720
224,60	121,477
224,81	212,111
225,03	104,648
225,24	207,643
225,46	98,040
225,67	12,302
225,89	44,267
226,10	513,916
226,32	666,560
226,54	-48,880
226,75	37,752
226,97	157,167
227,18	188,896
227,40	77,009
227,61	53,391
227,83	73,213
228,04	212,548
228,26	14,503
228,47	60,784
228,69	226,989
228,91	212,334
229,12	107,547
229,34	35,554
229,55	83,593
229,77	36,114
229,98	-4,091
230,20	31,387
230,41	46,208
230,63	100,889
230,84	77,296
231,06	23,536
231,27	14,557
231,49	43,137
231,71	48,292
231,92	44,865
232,14	14,824
232,35	120,854
232,57	49,008
232,78	10,922
233,00	68,106
233,21	44,402
233,43	10,956
233,64	-0,355
233,86	64,381
234,07	56,271
234,29	11,465
234,50	4,108
234,72	58,253
234,93	22,506
235,15	30,364
235,36	20,464
235,58	30,844
235,79	51,224
236,01	16,771
236,22	20,383
236,44	57,566
236,65	46,989
236,87	26,132
237,08	13,227
237,30	-12,998
237,51	43,184
237,73	-18,913
237,94	13,964
238,16	16,657
238,37	16,788
238,59	12,714
238,80	20,230
239,02	4,521
239,23	22,579
239,45	-11,531
239,66	17,944
239,88	46,728
240,09	20,359
240,31	-3,354
240,52	7,432
240,74	21,038
240,95	13,137
241,17	11,527
241,38	6,421
241,60	20,455
241,81	37,357
242,03	3,761
242,24	10,756
242,46	21,457
242,67	6,875
242,89	9,233
243,10	17,823
243,32	21,258
243,53	19,586
243,75	7,538
243,96	6,061
244,18	19,185
244,39	14,790
244,60	7,674
244,82	4,002
245,03	24,816
245,25	12,876
245,46	23,518
245,68	3,109
245,89	24,884
246,11	13,069
246,32	9,449
246,54	2,710
246,75	9,448
246,97	9,917
247,18	21,997
247,39	1,490
247,61	10,966
247,82	13,679
248,04	6,523
248,25	10,687
248,47	18,756
248,68	13,362
248,90	0,747
249,11	1,826
249,33	22,305
249,54	13,091
249,75	10,397
249,97	3,058
250,18	13,125
250,40	22,059
250,61	-1,795
250,83	4,722
251,04	1,763
251,25	13,228
251,47	1,136
251,68	8,101
251,90	11,248
252,11	13,091
252,33	7,157
252,54	3,818
252,76	8,184
252,97	8,647
253,18	3,332
253,40	7,590
253,61	0,883
253,83	14,598
254,04	9,015
254,25	5,182
254,47	3,762
254,68	9,602
254,90	5,485
255,11	9,982
255,33	12,767
255,54	7,395
255,75	5,574
255,97	2,240
256,18	-0,503
256,40	10,474
256,61	5,004
256,82	-0,249
257,04	12,235
257,25	2,423
257,47	9,242
257,68	2,337
257,89	13,704
258,11	11,320
258,32	7,006
258,54	7,021
258,75	9,629
258,96	15,045
259,18	7,137
259,39	1,872
259,61	10,087
259,82	7,364
260,03	2,916
260,25	5,406
260,46	6,248
260,68	10,408
260,89	3,823
261,10	7,392
261,32	5,024
261,53	2,638
261,75	10,531
261,96	2,145
262,17	9,809
262,39	11,433
262,60	5,068
262,81	-0,682
263,03	5,200
263,24	6,908
263,46	3,181
263,67	-1,508
263,88	9,464
264,10	9,427
264,31	3,881
264,52	7,554
264,74	13,997
264,95	4,195
265,17	6,345
265,38	5,669
265,59	10,260
265,81	10,907
266,02	1,019
266,23	1,480
266,45	12,778
266,66	8,592
266,87	9,002
267,09	2,131
267,30	10,201
267,52	13,091
267,73	5,807
267,94	6,490
268,16	5,395
268,37	5,919
268,58	10,337
268,80	3,517
269,01	8,630
269,22	10,153
269,44	6,749
269,65	6,191
269,86	5,536
270,08	10,197
270,29	2,785
270,50	4,301
270,72	12,126
270,93	2,858
271,14	-0,162
271,36	7,982
271,57	10,467
271,78	5,152
272,00	6,758
272,21	7,691
272,42	7,320
272,64	9,497
272,85	1,378
273,06	5,580
273,28	8,310
273,49	8,345
273,70	9,294
273,92	8,210
274,13	8,725
274,34	3,056
274,56	4,300
274,77	2,584
274,98	8,060
275,20	10,431
275,41	6,966
275,62	3,357
275,84	5,108
276,05	13,751
276,26	3,406
276,47	0,445
276,69	8,988
276,90	5,402
277,11	4,681
277,33	4,009
277,54	7,678
277,75	5,963
277,97	1,838
278,18	1,386
278,39	11,300
278,61	4,944
278,82	5,816
279,03	8,818
279,24	5,788
279,46	6,469
279,67	8,910
279,88	5,370
280,10	11,714
280,31	3,581
280,52	9,216
280,73	0,645
280,95	8,766
281,16	8,087
281,37	5,606
281,59	7,938
281,80	10,327
282,01	5,780
282,22	2,292
282,44	2,012
282,65	15,973
282,86	8,277
283,08	1,204
283,29	4,235
283,50	7,139
283,71	8,606
283,93	5,453
284,14	6,426
284,35	5,471
284,56	6,270
284,78	0,476
284,99	6,173
285,20	9,761
285,42	4,241
285,63	4,600
285,84	-0,936
286,05	5,190
286,27	6,540
286,48	3,319
286,69	3,057
286,90	1,528
287,12	5,120
287,33	3,242
287,54	2,301
287,75	9,374
287,97	6,663
288,18	4,053
288,39	-0,446
288,60	7,059
288,82	7,318
289,03	5,484
289,24	4,219
289,45	7,869
289,67	6,621
289,88	0,897
290,09	7,216
290,30	8,277
290,52	5,000
290,73	6,341
290,94	0,456
291,15	5,294
291,37	8,654
291,58	3,776
291,79	6,261
292,00	6,144
292,21	5,725
292,43	3,880
292,64	0,676
292,85	3,283
293,06	7,765
293,28	4,589
293,49	1,229
293,70	11,381
293,91	4,228
294,12	6,033
294,34	5,397
294,55	5,589
294,76	4,990
294,97	7,532
295,19	0,069
295,40	6,303
295,61	6,934
295,82	1,458
296,03	5,678
296,25	3,614
296,46	2,929
296,67	0,821
296,88	-0,542
297,09	5,911
297,31	3,876
297,52	3,473
297,73	2,960
297,94	6,859
298,15	8,141
298,37	4,313
298,58	8,302
298,79	5,071
299,00	2,309
299,21	3,041
299,43	3,953
299,64	9,711
299,85	6,480
300,06	3,622
300,27	2,926
300,49	8,529
300,70	5,581
300,91	4,965
301,12	2,500
301,33	8,903
301,54	5,276
301,76	6,385
301,97	3,480
302,18	3,373
302,39	9,141
302,60	12,412
302,82	4,337
303,03	9,578
303,24	6,375
303,45	7,538
303,66	7,099
303,87	3,592
304,09	7,596
304,30	2,590
304,51	2,439
304,72	4,813
304,93	7,619
305,14	5,185
305,36	0,526
305,57	3,217
305,78	6,852
305,99	3,891
306,20	4,404
306,41	3,383
306,62	2,228
306,84	3,386
307,05	-1,332
307,26	5,388
307,47	9,295
307,68	4,217
307,89	4,923
308,11	5,904
308,32	2,800
308,53	5,032
308,74	2,205
308,95	5,179
309,16	9,236
309,37	8,582
309,59	1,254
309,80	3,849
310,01	5,345
310,22	6,112
310,43	1,027
310,64	6,961
310,85	7,727
311,06	4,144
311,28	5,292
311,49	7,083
311,70	9,492
311,91	1,913
312,12	1,648
312,33	6,180
312,54	7,697
312,75	5,059
312,97	1,399
313,18	7,954
313,39	4,323
313,60	4,907
313,81	3,480
314,02	6,469
314,23	10,631
314,44	2,544
314,65	3,543
314,87	2,372
315,08	2,204
315,29	7,658
315,50	3,673
315,71	9,369
315,92	8,727
316,13	3,733
316,34	6,484
316,55	6,613
316,77	0,343
316,98	3,568
317,19	3,687
317,40	6,573
317,61	8,695
317,82	2,554
318,03	3,133
318,24	5,075
318,45	8,729
318,66	2,882
318,87	1,822
319,09	6,727
319,30	5,646
319,51	5,667
319,72	7,196
319,93	7,147
320,14	8,806
320,35	7,526
320,56	5,849
320,77	2,341
320,98	9,555
321,19	5,213
321,40	3,223
321,62	9,398
321,83	5,279
322,04	5,098
322,25	5,089
322,46	8,362
322,67	5,319
322,88	5,980
323,09	2,833
323,30	7,310
323,51	7,128
323,72	7,375
323,93	2,667
324,14	3,558
324,35	1,879
324,56	1,885
324,77	4,272
324,99	6,260
325,20	-0,947
325,41	5,638
325,62	4,200
325,83	3,429
326,04	3,082
326,25	6,331
326,46	0,366
326,67	4,303
326,88	4,366
327,09	2,792
327,30	1,521
327,51	4,408
327,72	5,548
327,93	6,343
328,14	0,761
328,35	3,466
328,56	7,518
328,77	4,241
328,98	6,654
329,19	3,195
329,40	8,248
329,61	3,745
329,82	-0,114
330,04	2,493
330,25	5,245
330,46	6,228
330,67	1,645
330,88	2,259
331,09	3,166
331,30	2,297
331,51	2,609
331,72	4,551
331,93	5,451
332,14	3,255
332,35	4,516
332,56	4,567
332,77	9,140
332,98	0,829
333,19	4,194
333,40	4,695
333,61	4,041
333,82	4,885
334,03	3,298
334,24	6,219
334,45	5,351
334,66	5,709
334,87	7,836
335,08	3,831
335,29	2,030
335,50	1,033
335,71	3,738
335,92	7,238
336,13	8,421
336,34	2,834
336,55	5,954
336,76	7,896
336,97	6,317
337,18	3,100
337,39	3,490
337,60	6,168
337,81	6,108
338,02	5,657
338,23	4,645
338,44	6,055
338,65	3,202
338,86	4,411
339,07	3,848
339,28	7,401
339,49	5,580
339,70	1,527
339,91	6,689
340,11	10,545
340,32	4,711
340,53	1,838
340,74	1,459
340,95	3,486
341,16	6,862
341,37	4,960
341,58	1,594
341,79	2,570
342,00	4,223
342,21	4,815
342,42	1,458
342,63	5,493
342,84	-1,144
343,05	6,713
343,26	6,713
343,47	6,538
343,68	1,737
343,89	3,196
344,10	3,368
344,31	5,242
344,52	3,749
344,73	3,564
344,94	5,065
345,14	5,558
345,35	7,266
345,56	2,226
345,77	2,766
345,98	4,790
346,19	3,662
346,40	3,998
346,61	2,802
346,82	6,043
347,03	6,323
347,24	7,392
347,45	1,248
347,66	10,836
347,87	5,421
348,08	8,650
348,28	1,585
348,49	7,594
348,70	8,778
348,91	5,424
349,12	2,441
349,33	13,783
349,54	6,232
349,75	7,832
349,96	4,167
350,17	5,648
350,38	3,232
350,59	6,216
350,80	7,113
351,00	6,987
351,21	8,376
351,42	3,795
351,63	-0,885
351,84	4,771
352,05	8,072
352,26	4,359
352,47	2,615
352,68	5,884
352,89	9,328
353,09	7,674
353,30	1,793
353,51	4,541
353,72	8,535
353,93	5,979
354,14	2,637
354,35	6,177
354,56	10,872
354,77	4,769
354,98	1,154
355,18	8,422
355,39	10,076
355,60	1,316
355,81	4,711
356,02	6,275
356,23	5,840
356,44	3,256
356,65	5,849
356,85	12,298
357,06	6,033
357,27	7,094
357,48	1,786
357,69	8,329
357,90	6,571
358,11	-0,622
358,32	6,640
358,52	7,472
358,73	5,335
358,94	3,189
359,15	6,215
359,36	6,486
359,57	2,354
359,78	6,104
359,98	0,618
360,19	4,325
360,40	7,185
360,61	6,829
360,82	1,548
361,03	7,644
361,24	8,713
361,44	2,619
361,65	3,832
361,86	4,685
362,07	5,305
362,28	3,500
362,49	2,969
362,70	4,816
362,90	6,829
363,11	1,589
363,32	3,161
363,53	4,973
363,74	7,853
363,95	8,096
364,15	5,556
364,36	9,719
364,57	6,528
364,78	4,297
364,99	4,881
365,20	6,595
365,40	11,194
365,61	4,991
365,82	6,397
366,03	7,201
366,24	6,148
366,45	0,887
366,65	4,900
366,86	6,749
367,07	7,182
367,28	4,007
367,49	2,452
367,69	7,728
367,90	4,081
368,11	4,285
368,32	4,927
368,53	8,006
368,73	7,698
368,94	3,498
369,15	5,018
369,36	8,850
369,57	5,178
369,78	4,514
369,98	7,341
370,19	8,485
370,40	5,596
370,61	3,001
370,82	6,431
371,02	6,917
371,23	6,678
371,44	2,954
371,65	4,733
371,85	9,307
372,06	3,706
372,27	3,158
372,48	2,605
372,69	6,868
372,89	3,147
373,10	4,469
373,31	3,482
373,52	7,294
373,73	10,765
373,93	5,394
374,14	5,186
374,35	7,466
374,56	11,305
374,76	5,571
374,97	4,212
375,18	6,964
375,39	6,732
375,60	8,967
375,80	5,273
376,01	4,362
376,22	6,549
376,43	6,005
376,63	4,823
376,84	4,332
377,05	5,643
377,26	1,841
377,46	4,018
377,67	4,188
377,88	9,009
378,09	4,742
378,29	2,360
378,50	5,771
378,71	9,026
378,92	2,522
379,12	3,138
379,33	3,874
379,54	3,474
379,75	8,049
379,95	0,360
380,16	7,366
380,37	10,293
380,58	4,077
380,78	7,679
380,99	3,541
381,20	7,106
381,41	2,721
381,61	5,608
381,82	4,800
382,03	6,950
382,24	6,010
382,44	6,005
382,65	5,225
382,86	5,720
383,06	3,599
383,27	5,598
383,48	5,006
383,69	7,033
383,89	6,310
384,10	3,029
384,31	5,480
384,51	9,506
384,72	8,179
384,93	2,748
385,14	4,306
385,34	6,820
385,55	4,733
385,76	0,887
385,96	8,508
386,17	2,989
386,38	8,403
386,59	8,192
386,79	3,430
387,00	12,001
387,21	10,033
387,41	7,496
387,62	6,492
387,83	9,684
388,03	3,745
388,24	0,719
388,45	5,096
388,66	6,139
388,86	6,261
389,07	1,035
389,28	12,720
389,48	3,686
389,69	4,431
389,90	5,984
390,10	8,039
390,31	11,937
390,52	-2,769
390,72	0,182
390,93	7,378
391,14	6,768
391,34	5,944
391,55	8,013
391,76	8,442
391,96	7,286
392,17	1,777
392,38	7,273
392,58	7,719
392,79	5,138
393,00	0,854
393,20	3,088
393,41	8,473
393,62	5,882
393,82	6,856
394,03	6,528
394,24	8,617
394,44	5,654
394,65	7,744
394,86	3,596
395,06	8,099
395,27	2,983
395,48	5,652
395,68	3,875
395,89	6,109
396,10	5,219
396,30	5,275
396,51	-1,897
396,72	5,486
396,92	3,056
397,13	5,636
397,34	2,451
397,54	5,267
397,75	1,370
397,95	-0,275
398,16	5,382
398,37	4,437
398,57	3,457
398,78	6,273
398,99	8,169
399,19	6,607
399,40	10,299
399,60	2,020
399,81	3,828
400,02	8,645
400,22	7,736
400,43	4,867
400,64	4,380
400,84	2,421
401,05	7,089
401,25	7,444
401,46	6,090
401,67	8,524
401,87	2,442
402,08	0,119
402,29	1,416
402,49	9,135
402,70	7,174
402,90	0,985
403,11	3,404
403,32	7,167
403,52	6,862
403,73	6,249
403,93	6,464
404,14	10,663
404,35	6,259
404,55	1,405
404,76	2,933
404,96	4,470
405,17	9,947
405,38	7,766
405,58	4,106
405,79	9,588
405,99	11,045
406,20	5,494
406,40	-1,669
406,61	6,556
406,82	5,904
407,02	9,263
407,23	3,915
407,43	1,778
407,64	1,251
407,85	2,617
408,05	0,653
408,26	12,331
408,46	8,279
408,67	1,369
408,87	4,012
409,08	1,007
409,29	8,417
409,49	7,855
409,70	8,209
409,90	7,091
410,11	9,193
410,31	8,328
410,52	3,229
410,72	4,049
410,93	9,882
411,14	2,900
411,34	4,718
411,55	5,770
411,75	9,855
411,96	6,481
412,16	5,979
412,37	3,071
412,57	8,925
412,78	5,230
412,99	4,912
413,19	8,897
413,40	-0,267
413,60	3,257
413,81	4,347
414,01	2,732
414,22	4,472
414,42	4,286
414,63	-0,280
414,83	7,464
415,04	9,993
415,24	6,232
415,45	4,291
415,65	3,836
415,86	7,748
416,07	3,991
416,27	4,916
416,48	10,512
416,68	9,291
416,89	0,718
417,09	7,845
417,30	6,770
417,50	2,221
417,71	9,146
417,91	7,091
418,12	4,594
418,32	4,259
418,53	5,630
418,73	4,402
418,94	4,320
419,14	10,674
419,35	-0,523
419,55	2,987
419,76	4,948
419,96	2,201
420,17	3,919
420,37	2,963
420,58	5,997
420,78	5,551
420,99	7,112
421,19	10,423
421,40	8,782
421,60	7,755
421,81	2,168
422,01	4,558
422,22	2,852
422,42	3,839
422,63	3,697
422,83	4,448
423,04	7,986
423,24	13,114
423,45	1,651
423,65	10,196
423,86	9,645
424,06	9,455
424,27	1,588
424,47	3,638
424,67	-0,167
424,88	6,219
425,08	1,997
425,29	7,892
425,49	3,418
425,70	-2,757
425,90	5,801
426,11	6,124
426,31	4,742
426,52	7,320
426,72	1,093
426,93	0,639
427,13	8,702
427,33	2,290
427,54	5,232
427,74	7,588
427,95	14,455
428,15	1,431
428,36	4,288
428,56	4,812
428,77	6,911
428,97	6,610
429,18	6,048
429,38	6,405
429,58	7,425
429,79	6,400
429,99	1,887
430,20	-0,981
430,40	10,545
430,61	3,582
430,81	1,163
431,01	7,617
431,22	10,092
431,42	8,293
431,63	2,166
431,83	4,892
432,04	10,056
432,24	11,116
432,44	4,616
432,65	4,529
432,85	7,138
433,06	8,625
433,26	3,365
433,47	3,178
433,67	8,486
433,87	6,943
434,08	2,965
434,28	6,866
434,49	4,299
434,69	10,559
434,89	2,313
435,10	4,717
435,30	9,915
435,51	4,098
435,71	4,779
435,91	3,373
436,12	6,564
436,32	4,318
436,53	7,928
436,73	2,469
436,93	6,440
437,14	4,061
437,34	6,269
437,55	4,090
437,75	5,197
437,95	9,000
438,16	4,116
438,36	2,369
438,57	3,702
438,77	3,093
438,97	6,339
439,18	8,015
439,38	4,201
439,58	2,603
439,79	3,602
439,99	5,734
440,20	11,007
440,40	10,716
440,60	6,164
440,81	8,144
441,01	12,300
441,21	8,548
441,42	6,016
441,62	5,906
441,83	3,120
442,03	4,848
442,23	3,878
442,44	5,087
442,64	9,640
442,84	3,609
443,05	8,130
443,25	3,928
443,45	2,717
443,66	5,260
443,86	2,919
444,06	6,237
444,27	6,262
444,47	8,195
444,67	1,043
444,88	7,040
445,08	5,043
445,28	6,612
445,49	0,657
445,69	1,556
445,90	8,681
446,10	6,028
446,30	8,473
446,51	5,108
446,71	8,365
446,91	9,960
447,12	8,128
447,32	4,275
447,52	6,957
447,72	4,914
447,93	3,973
448,13	-0,884
448,33	11,318
448,54	10,240
448,74	5,422
448,94	6,967
449,15	10,900
449,35	13,525
449,55	4,913
449,76	8,467
449,96	7,517
450,16	8,773
450,37	-0,373
450,57	7,118
450,77	4,036
450,98	7,824
451,18	11,639
451,38	5,356
451,58	7,100
451,79	10,790
451,99	7,141
452,19	7,116
452,40	10,301
452,60	4,203
452,80	5,584
453,00	8,153
453,21	11,093
453,41	7,515
453,61	5,557
453,82	10,200
454,02	4,064
454,22	9,052
454,42	7,934
454,63	4,676
454,83	6,284
455,03	10,517
455,24	6,528
455,44	7,754
455,64	5,903
