Fichero De Datos De SpectraSuite
++++++++++++++++++++++++++++++++++++
Fecha: Wed Apr 22 13:13:05 CEST 2009
Usuario: evoflor
Presente Oscuro Del Espectro: Sí
La Referencia de Presente Del Espectro De: Sí
Muestreados de los componentes de Número de espectros: 1
Espectrómetros: USB4F02353
Tiempo de integración (usec): 500000 (USB4F02353)
Promedio de Espectros Hechos un: 5 (USB4F02353)
El Alisar Del Furgón: 0 (USB4F02353)
Párrafo de de Corregir del la del del de Eléctrica del obscuridad: Sí (USB4F02353)
Estrobo/Lámpara Permitido: No (USB4F02353)
Correct for Detector Non-linearity: No (USB4F02353)
Párrafo de de Corregir del la del del de Externa del luz: No (USB4F02353)
Procesado del espectro de Número de pixeles en: 3648
>>>>> Comienza Data<<<<< Espectral Procesado Del EL
177,79	287,760
178,00	287,760
178,22	287,760
178,44	1961,044
178,66	-282,374
178,88	367,280
179,09	12,574
179,31	293,817
179,53	754,319
179,75	221,521
179,96	1285,733
180,18	-148,754
180,40	426,258
180,62	493,488
180,83	-309,731
181,05	-1292,012
181,27	-144645,000
181,49	-163,793
181,70	23,250
181,92	1031,193
182,14	674,232
182,36	46,950
182,58	569,550
182,79	1196,183
183,01	22,681
183,23	126,476
183,45	-168,138
183,66	-333,385
183,88	400,853
184,10	-3693,545
184,32	81,795
184,53	319,574
184,75	-310,277
184,97	15,413
185,18	-160,235
185,40	-695,409
185,62	138,413
185,84	72,151
186,05	194,189
186,27	-102,891
186,49	5978,654
186,71	16,765
186,92	221,699
187,14	-344,589
187,36	200,746
187,58	89,246
187,79	31,847
188,01	313,980
188,23	-295,866
188,45	22,114
188,66	-93,549
188,88	-3006,273
189,10	-2247,450
189,31	12,722
189,53	-0,465
189,75	608,966
189,97	317,481
190,18	-31,996
190,40	602,029
190,62	-194,320
190,83	-428,492
191,05	215,652
191,27	194,700
191,49	453,824
191,70	-530,986
191,92	-745,297
192,14	-26,949
192,35	758,475
192,57	6318,429
192,79	-46,799
193,01	257,781
193,22	152,111
193,44	-113,217
193,66	100,545
193,87	66,906
194,09	-81,007
194,31	226,562
194,53	1156,259
194,74	50,395
194,96	80,237
195,18	123,282
195,39	-467,137
195,61	-199,583
195,83	-339,880
196,04	192,773
196,26	-288,166
196,48	3,685
196,70	283,986
196,91	38,575
197,13	359,354
197,35	60,278
197,56	890,851
197,78	1670,485
198,00	627,587
198,21	597,306
198,43	-1364,215
198,65	167,742
198,86	539,730
199,08	214,574
199,30	309,200
199,51	-611,873
199,73	202,489
199,95	556,300
200,16	570,173
200,38	283,827
200,60	224,315
200,81	323,223
201,03	346,590
201,25	-2040,450
201,46	204,337
201,68	102,399
201,90	3389,659
202,11	-802,844
202,33	183,743
202,55	930,562
202,76	-39,868
202,98	80,645
203,20	122,380
203,41	-154,974
203,63	123,159
203,85	-138345,000
204,06	-69,501
204,28	-88,301
204,50	314,971
204,71	440,009
204,93	660,360
205,15	348,931
205,36	-271,405
205,58	263,810
205,80	-352,138
206,01	96,048
206,23	164,720
206,45	273,293
206,66	162,146
206,88	-100,916
207,10	451,466
207,31	351,318
207,53	125,271
207,75	105,197
207,96	474,963
208,18	-200,759
208,39	20,350
208,61	5007,000
208,83	-544,282
209,04	344,422
209,26	-417,719
209,48	287,565
209,69	230,395
209,91	886,976
210,13	70,530
210,34	160,642
210,56	183,785
210,77	-1698,780
210,99	229,439
211,21	6814,412
211,42	-99,482
211,64	-35,522
211,86	285,344
212,07	145,296
212,29	288,460
212,50	215,999
212,72	82,096
212,94	197,588
213,15	108,249
213,37	179,298
213,58	-224,933
213,80	-2273,036
214,02	14861,471
214,23	426,542
214,45	453,590
214,67	-1324,939
214,88	-243,775
215,10	-473,319
215,31	83,941
215,53	-70,125
215,75	207,730
215,96	1776,056
216,18	376,690
216,39	184,903
216,61	551,627
216,83	629,665
217,04	2282,528
217,26	93,944
217,47	178,356
217,69	361,118
217,91	7,616
218,12	-105045,000
218,34	124,593
218,55	321,605
218,77	97,968
218,99	58,362
219,20	-302,868
219,42	493,514
219,63	-9,051
219,85	-100,756
220,06	-229,442
220,28	256,781
220,50	105,493
220,71	99,881
220,93	4698,962
221,14	-2409,450
221,36	-92,438
221,58	7,009
221,79	328,438
222,01	1510,733
222,22	513,454
222,44	-336,573
222,65	124,131
222,87	-89,895
223,09	94,299
223,30	95,956
223,52	185,020
223,73	171,839
223,95	-45,993
224,16	268,546
224,38	349,159
224,60	159,366
224,81	247,900
225,03	143,442
225,24	221,003
225,46	141,603
225,67	57,889
225,89	7,912
226,10	503,449
226,32	573,960
226,54	52,040
226,75	27,575
226,97	168,091
227,18	202,700
227,40	32,243
227,61	34,119
227,83	59,990
228,04	173,066
228,26	52,659
228,47	79,425
228,69	296,790
228,91	157,046
229,12	75,355
229,34	49,931
229,55	53,789
229,77	17,075
229,98	-11,309
230,20	90,125
230,41	76,668
230,63	90,957
230,84	35,134
231,06	47,297
231,27	-1,575
231,49	49,930
231,71	27,280
231,92	50,846
232,14	10,878
232,35	92,330
232,57	56,325
232,78	27,984
233,00	49,015
233,21	32,325
233,43	2,142
233,64	16,143
233,86	28,355
234,07	52,514
234,29	24,175
234,50	5,309
234,72	40,724
234,93	20,686
235,15	18,612
235,36	20,487
235,58	46,139
235,79	57,155
236,01	19,603
236,22	21,205
236,44	43,689
236,65	25,204
236,87	26,599
237,08	-2,327
237,30	3,844
237,51	29,054
237,73	7,886
237,94	15,318
238,16	29,503
238,37	17,590
238,59	10,178
238,80	12,976
239,02	16,363
239,23	21,988
239,45	-10,415
239,66	27,518
239,88	47,839
240,09	23,677
240,31	0,930
240,52	6,966
240,74	25,053
240,95	19,743
241,17	1,061
241,38	7,399
241,60	12,783
241,81	31,502
242,03	4,237
242,24	12,700
242,46	16,635
242,67	8,848
242,89	8,478
243,10	16,091
243,32	19,954
243,53	21,513
243,75	6,519
243,96	-0,170
244,18	16,866
244,39	8,857
244,60	9,925
244,82	1,279
245,03	21,276
245,25	12,021
245,46	23,802
245,68	8,235
245,89	19,459
246,11	9,518
246,32	15,025
246,54	0,300
246,75	15,773
246,97	12,616
247,18	20,311
247,39	8,511
247,61	11,638
247,82	12,431
248,04	4,104
248,25	5,847
248,47	13,118
248,68	10,881
248,90	1,647
249,11	3,312
249,33	18,023
249,54	7,016
249,75	7,154
249,97	6,624
250,18	18,994
250,40	15,700
250,61	-3,957
250,83	4,678
251,04	8,918
251,25	14,217
251,47	3,356
251,68	3,994
251,90	8,962
252,11	13,795
252,33	6,104
252,54	7,147
252,76	4,411
252,97	1,368
253,18	3,048
253,40	3,596
253,61	-2,579
253,83	13,723
254,04	9,292
254,25	9,802
254,47	4,361
254,68	7,667
254,90	2,651
255,11	6,441
255,33	9,759
255,54	5,243
255,75	6,923
255,97	3,929
256,18	4,611
256,40	11,216
256,61	9,945
256,82	-2,075
257,04	14,391
257,25	3,087
257,47	6,696
257,68	3,941
257,89	7,066
258,11	10,026
258,32	8,684
258,54	4,890
258,75	10,224
258,96	8,713
259,18	5,026
259,39	3,768
259,61	10,928
259,82	2,741
260,03	8,273
260,25	6,828
260,46	3,597
260,68	4,993
260,89	3,789
261,10	4,240
261,32	9,223
261,53	3,229
261,75	5,263
261,96	-2,548
262,17	11,407
262,39	11,562
262,60	2,877
262,81	-0,967
263,03	13,888
263,24	9,400
263,46	4,048
263,67	2,897
263,88	6,813
264,10	6,133
264,31	0,693
264,52	7,219
264,74	7,741
264,95	5,452
265,17	6,153
265,38	8,737
265,59	8,655
265,81	8,824
266,02	-0,091
266,23	3,442
266,45	11,704
266,66	10,097
266,87	8,009
267,09	4,205
267,30	8,640
267,52	9,312
267,73	2,144
267,94	1,848
268,16	5,624
268,37	3,763
268,58	8,116
268,80	5,507
269,01	6,034
269,22	9,719
269,44	7,045
269,65	9,108
269,86	2,005
270,08	8,836
270,29	4,115
270,50	7,063
270,72	11,424
270,93	6,114
271,14	1,268
271,36	3,621
271,57	12,056
271,78	6,666
272,00	5,451
272,21	8,242
272,42	6,381
272,64	7,766
272,85	1,676
273,06	3,506
273,28	6,303
273,49	6,449
273,70	10,875
273,92	8,497
274,13	5,701
274,34	2,951
274,56	9,889
274,77	0,666
274,98	11,612
275,20	5,908
275,41	9,757
275,62	4,613
275,84	5,289
276,05	10,176
276,26	0,448
276,47	0,414
276,69	8,669
276,90	8,330
277,11	1,173
277,33	4,187
277,54	3,923
277,75	5,693
277,97	4,244
278,18	1,554
278,39	7,756
278,61	2,539
278,82	8,685
279,03	5,459
279,24	6,901
279,46	5,310
279,67	8,259
279,88	3,052
280,10	6,796
280,31	2,776
280,52	6,502
280,73	1,935
280,95	7,866
281,16	9,902
281,37	4,653
281,59	7,328
281,80	11,919
282,01	5,282
282,22	3,013
282,44	2,048
282,65	14,933
282,86	8,497
283,08	5,863
283,29	4,829
283,50	6,257
283,71	8,060
283,93	4,866
284,14	7,243
284,35	3,742
284,56	5,341
284,78	4,456
284,99	7,324
285,20	9,587
285,42	2,787
285,63	6,071
285,84	-0,716
286,05	2,486
286,27	6,344
286,48	1,776
286,69	2,944
286,90	2,461
287,12	4,063
287,33	1,690
287,54	3,057
287,75	5,039
287,97	9,681
288,18	5,699
288,39	3,436
288,60	4,630
288,82	5,123
289,03	3,573
289,24	6,843
289,45	7,763
289,67	4,295
289,88	1,696
290,09	6,426
290,30	7,360
290,52	4,570
290,73	2,011
290,94	1,669
291,15	3,548
291,37	5,725
291,58	4,692
291,79	3,595
292,00	7,027
292,21	5,126
292,43	3,316
292,64	1,999
292,85	4,974
293,06	8,668
293,28	3,016
293,49	1,444
293,70	9,246
293,91	2,552
294,12	4,642
294,34	3,441
294,55	3,390
294,76	6,731
294,97	6,885
295,19	0,932
295,40	5,093
295,61	7,879
295,82	0,817
296,03	6,166
296,25	6,603
296,46	0,683
296,67	1,656
296,88	1,284
297,09	6,799
297,31	4,743
297,52	4,032
297,73	2,595
297,94	7,721
298,15	6,454
298,37	3,273
298,58	6,703
298,79	4,532
299,00	0,472
299,21	2,540
299,43	0,601
299,64	8,912
299,85	6,190
300,06	2,116
300,27	2,112
300,49	10,557
300,70	5,429
300,91	3,523
301,12	3,249
301,33	7,661
301,54	2,773
301,76	5,705
301,97	1,714
302,18	4,346
302,39	7,178
302,60	12,535
302,82	3,554
303,03	13,340
303,24	4,037
303,45	5,138
303,66	4,458
303,87	4,843
304,09	8,006
304,30	3,517
304,51	3,763
304,72	3,248
304,93	4,462
305,14	5,189
305,36	2,140
305,57	2,468
305,78	7,124
305,99	3,307
306,20	4,798
306,41	2,727
306,62	2,704
306,84	2,827
307,05	-0,423
307,26	3,781
307,47	8,439
307,68	3,905
307,89	4,511
308,11	8,245
308,32	3,025
308,53	4,369
308,74	1,987
308,95	5,279
309,16	5,470
309,37	8,396
309,59	2,300
309,80	5,659
310,01	4,576
310,22	7,792
310,43	1,266
310,64	5,174
310,85	6,392
311,06	2,392
311,28	6,093
311,49	4,496
311,70	9,278
311,91	-0,848
312,12	2,102
312,33	5,251
312,54	3,787
312,75	4,290
312,97	1,873
313,18	7,110
313,39	2,160
313,60	4,479
313,81	3,241
314,02	6,304
314,23	8,670
314,44	0,355
314,65	2,700
314,87	3,178
315,08	5,051
315,29	6,700
315,50	6,866
315,71	7,885
315,92	9,533
316,13	5,597
316,34	5,136
316,55	7,496
316,77	0,321
316,98	4,019
317,19	4,222
317,40	6,259
317,61	8,347
317,82	4,283
318,03	2,600
318,24	4,903
318,45	7,788
318,66	6,433
318,87	3,291
319,09	4,509
319,30	5,426
319,51	8,619
319,72	4,996
319,93	9,095
320,14	5,664
320,35	8,273
320,56	0,067
320,77	3,047
320,98	9,329
321,19	2,721
321,40	3,227
321,62	7,095
321,83	4,886
322,04	4,889
322,25	2,758
322,46	7,014
322,67	8,641
322,88	3,978
323,09	3,925
323,30	6,789
323,51	6,579
323,72	5,690
323,93	2,824
324,14	5,268
324,35	0,529
324,56	-0,841
324,77	2,929
324,99	3,177
325,20	0,119
325,41	4,692
325,62	6,187
325,83	0,812
326,04	4,940
326,25	5,641
326,46	0,957
326,67	6,088
326,88	6,147
327,09	1,670
327,30	2,434
327,51	5,729
327,72	6,606
327,93	6,663
328,14	0,867
328,35	5,360
328,56	4,595
328,77	4,141
328,98	6,405
329,19	7,082
329,40	4,789
329,61	4,783
329,82	0,432
330,04	6,450
330,25	3,619
330,46	4,085
330,67	1,674
330,88	7,037
331,09	5,050
331,30	3,229
331,51	6,583
331,72	6,484
331,93	7,486
332,14	4,544
332,35	5,207
332,56	2,841
332,77	6,119
332,98	1,122
333,19	1,123
333,40	6,233
333,61	4,544
333,82	5,816
334,03	4,796
334,24	8,213
334,45	3,558
334,66	4,677
334,87	3,306
335,08	2,960
335,29	5,081
335,50	2,215
335,71	2,064
335,92	7,929
336,13	6,591
336,34	3,160
336,55	5,640
336,76	7,793
336,97	4,993
337,18	4,079
337,39	4,172
337,60	7,386
337,81	6,277
338,02	3,388
338,23	3,458
338,44	7,713
338,65	4,048
338,86	3,477
339,07	3,320
339,28	6,593
339,49	4,913
339,70	-0,512
339,91	3,475
340,11	7,863
340,32	0,644
340,53	1,707
340,74	1,196
340,95	2,069
341,16	6,893
341,37	5,127
341,58	0,020
341,79	1,777
342,00	3,277
342,21	4,163
342,42	5,054
342,63	7,486
342,84	4,691
343,05	5,090
343,26	4,982
343,47	6,599
343,68	2,417
343,89	3,857
344,10	6,697
344,31	5,382
344,52	4,533
344,73	2,514
344,94	5,152
345,14	4,376
345,35	6,646
345,56	2,119
345,77	4,790
345,98	4,190
346,19	3,068
346,40	2,455
346,61	3,141
346,82	4,864
347,03	3,990
347,24	4,563
347,45	1,924
347,66	9,668
347,87	2,868
348,08	6,899
348,28	0,505
348,49	6,184
348,70	5,935
348,91	3,969
349,12	1,760
349,33	15,766
349,54	4,772
349,75	6,147
349,96	3,870
350,17	7,511
350,38	4,260
350,59	5,699
350,80	2,872
351,00	6,876
351,21	6,635
351,42	3,060
351,63	-1,219
351,84	5,471
352,05	7,990
352,26	5,008
352,47	3,320
352,68	8,081
352,89	7,411
353,09	4,213
353,30	0,383
353,51	2,927
353,72	5,371
353,93	7,619
354,14	1,655
354,35	1,824
354,56	8,804
354,77	5,551
354,98	1,098
355,18	7,544
355,39	11,242
355,60	3,110
355,81	5,360
356,02	5,136
356,23	5,090
356,44	2,390
356,65	4,926
356,85	9,992
357,06	9,134
357,27	6,585
357,48	0,741
357,69	4,442
357,90	7,304
358,11	1,240
358,32	0,230
358,52	7,300
358,73	3,507
358,94	3,822
359,15	4,354
359,36	7,109
359,57	4,785
359,78	2,913
359,98	0,292
360,19	0,895
360,40	5,103
360,61	7,667
360,82	0,818
361,03	8,062
361,24	7,090
361,44	1,292
361,65	3,594
361,86	3,860
362,07	4,449
362,28	1,629
362,49	-0,009
362,70	5,175
362,90	7,315
363,11	1,890
363,32	1,933
363,53	3,628
363,74	8,647
363,95	7,536
364,15	5,325
364,36	10,015
364,57	5,830
364,78	2,963
364,99	3,303
365,20	7,221
365,40	6,425
365,61	4,272
365,82	8,568
366,03	9,219
366,24	5,689
366,45	2,139
366,65	5,109
366,86	5,413
367,07	6,614
367,28	3,533
367,49	4,178
367,69	10,792
367,90	4,941
368,11	4,862
368,32	2,383
368,53	5,672
368,73	2,454
368,94	5,092
369,15	4,534
369,36	6,878
369,57	8,127
369,78	5,018
369,98	7,225
370,19	9,163
370,40	4,527
370,61	4,653
370,82	3,487
371,02	8,102
371,23	7,782
371,44	1,727
371,65	8,046
371,85	9,911
372,06	5,335
372,27	4,671
372,48	5,958
372,69	7,624
372,89	2,467
373,10	4,796
373,31	4,036
373,52	6,272
373,73	8,756
373,93	5,489
374,14	3,969
374,35	9,729
374,56	4,981
374,76	2,754
374,97	6,502
375,18	9,042
375,39	2,900
375,60	6,187
375,80	6,086
376,01	2,364
376,22	9,555
376,43	5,115
376,63	5,223
376,84	4,712
377,05	6,379
377,26	3,445
377,46	1,723
377,67	4,770
377,88	4,047
378,09	4,654
378,29	2,007
378,50	5,182
378,71	7,059
378,92	1,621
379,12	2,323
379,33	4,700
379,54	4,692
379,75	9,276
379,95	1,886
380,16	7,585
380,37	8,365
380,58	3,738
380,78	8,369
380,99	3,196
381,20	7,884
381,41	3,584
381,61	5,025
381,82	7,725
382,03	6,333
382,24	6,303
382,44	5,946
382,65	6,178
382,86	5,161
383,06	3,140
383,27	7,375
383,48	6,209
383,69	5,763
383,89	5,507
384,10	6,011
384,31	5,649
384,51	5,854
384,72	7,004
384,93	4,167
385,14	2,979
385,34	4,258
385,55	4,050
385,76	3,597
385,96	11,125
386,17	7,483
386,38	7,604
386,59	5,755
386,79	5,763
387,00	10,177
387,21	7,568
387,41	5,899
387,62	1,369
387,83	8,011
388,03	5,971
388,24	-1,175
388,45	5,848
388,66	8,800
388,86	4,521
389,07	0,904
389,28	10,954
389,48	4,262
389,69	0,481
389,90	4,055
390,10	6,516
390,31	6,186
390,52	-0,972
390,72	3,873
390,93	5,592
391,14	4,598
391,34	5,276
391,55	6,747
391,76	11,000
391,96	6,125
392,17	3,188
392,38	6,807
392,58	4,372
392,79	5,368
393,00	1,125
393,20	3,222
393,41	4,300
393,62	5,526
393,82	2,978
394,03	5,098
394,24	6,562
394,44	7,215
394,65	5,152
394,86	3,794
395,06	8,103
395,27	1,539
395,48	1,609
395,68	5,775
395,89	5,508
396,10	6,101
396,30	2,999
396,51	1,302
396,72	3,583
396,92	2,184
397,13	6,647
397,34	2,622
397,54	9,241
397,75	3,725
397,95	1,099
398,16	2,576
398,37	7,356
398,57	1,202
398,78	5,547
398,99	6,631
399,19	7,824
399,40	5,567
399,60	0,424
399,81	4,450
400,02	9,054
400,22	7,536
400,43	1,319
400,64	3,120
400,84	2,003
401,05	8,197
401,25	7,791
401,46	6,060
401,67	6,835
401,87	6,828
402,08	-1,864
402,29	3,703
402,49	11,064
402,70	6,744
402,90	4,854
403,11	4,341
403,32	6,170
403,52	4,542
403,73	6,484
403,93	6,082
404,14	6,623
404,35	6,792
404,55	2,240
404,76	3,315
404,96	3,902
405,17	11,000
405,38	11,009
405,58	3,691
405,79	9,027
405,99	9,307
406,20	3,480
406,40	-0,378
406,61	10,986
406,82	5,800
407,02	7,919
407,23	9,218
407,43	3,435
407,64	2,993
407,85	4,433
408,05	1,395
408,26	11,508
408,46	10,917
408,67	2,216
408,87	-0,331
409,08	3,019
409,29	10,837
409,49	6,251
409,70	5,337
409,90	7,862
410,11	6,887
410,31	10,299
410,52	6,199
410,72	2,784
410,93	7,715
411,14	2,395
411,34	2,034
411,55	8,633
411,75	8,920
411,96	6,200
412,16	9,398
412,37	6,407
412,57	6,704
412,78	10,057
412,99	1,988
413,19	9,310
413,40	6,033
413,60	2,216
413,81	3,445
414,01	5,131
414,22	5,426
414,42	2,548
414,63	1,424
414,83	11,753
415,04	12,340
415,24	7,938
415,45	3,931
415,65	4,392
415,86	8,885
416,07	5,319
416,27	7,532
416,48	11,761
416,68	12,446
416,89	0,283
417,09	5,403
417,30	7,495
417,50	5,270
417,71	8,530
417,91	6,107
418,12	5,454
418,32	5,495
418,53	4,751
418,73	4,809
418,94	3,940
419,14	9,499
419,35	4,015
419,55	9,247
419,76	9,739
419,96	3,515
420,17	5,339
420,37	5,697
420,58	11,374
420,78	6,720
420,99	6,747
421,19	8,620
421,40	10,645
421,60	9,774
421,81	4,153
422,01	6,814
422,22	5,366
422,42	9,897
422,63	7,632
422,83	8,254
423,04	11,232
423,24	12,411
423,45	8,287
423,65	10,580
423,86	13,693
424,06	13,058
424,27	4,576
424,47	3,830
424,67	6,656
424,88	10,356
425,08	5,567
425,29	12,679
425,49	4,954
425,70	4,273
425,90	8,460
426,11	7,158
426,31	10,116
426,52	10,938
426,72	3,316
426,93	5,554
427,13	13,100
427,33	9,243
427,54	9,294
427,74	7,100
427,95	10,894
428,15	4,705
428,36	9,638
428,56	6,557
428,77	8,241
428,97	8,913
429,18	7,693
429,38	7,891
429,58	8,904
429,79	8,145
429,99	7,422
430,20	2,028
430,40	13,532
430,61	7,039
430,81	3,904
431,01	10,750
431,22	12,779
431,42	16,539
431,63	5,713
431,83	7,367
432,04	8,718
432,24	15,405
432,44	7,802
432,65	4,118
432,85	7,654
433,06	11,102
433,26	8,633
433,47	8,242
433,67	8,974
433,87	8,874
434,08	5,457
434,28	7,672
434,49	6,477
434,69	13,654
434,89	6,683
435,10	5,978
435,30	10,374
435,51	5,709
435,71	9,737
435,91	6,332
436,12	11,156
436,32	7,306
436,53	11,109
436,73	7,336
436,93	11,285
437,14	11,848
437,34	9,721
437,55	9,430
437,75	10,127
437,95	12,386
438,16	7,113
438,36	5,727
438,57	5,711
438,77	8,615
438,97	11,464
439,18	12,838
439,38	10,369
439,58	9,688
439,79	7,334
439,99	8,649
440,20	14,820
440,40	11,667
440,60	10,076
440,81	10,464
441,01	7,863
441,21	14,618
441,42	14,797
441,62	9,649
441,83	13,180
442,03	10,407
442,23	10,949
442,44	8,140
442,64	12,802
442,84	9,189
443,05	8,843
443,25	9,590
443,45	13,801
443,66	11,657
443,86	9,117
444,06	10,557
444,27	13,005
444,47	12,765
444,67	8,534
444,88	14,806
445,08	12,888
445,28	13,911
445,49	7,317
445,69	7,739
445,90	13,973
446,10	16,372
446,30	14,905
446,51	12,335
446,71	18,572
446,91	16,663
447,12	18,745
447,32	11,418
447,52	15,640
447,72	15,335
447,93	11,776
448,13	8,213
448,33	18,807
448,54	14,696
448,74	9,921
448,94	15,314
449,15	21,783
449,35	21,356
449,55	12,275
449,76	17,183
449,96	14,725
450,16	17,529
450,37	10,841
450,57	14,798
450,77	11,074
450,98	18,360
451,18	17,659
451,38	15,647
451,58	17,159
451,79	17,651
451,99	18,241
452,19	16,657
452,40	17,974
452,60	12,963
452,80	16,074
453,00	16,880
453,21	18,031
453,41	16,117
453,61	14,389
453,82	19,921
454,02	17,161
454,22	22,864
454,42	19,242
454,63	15,228
454,83	17,470
455,03	22,444
455,24	20,579
