Fichero De Datos De SpectraSuite
++++++++++++++++++++++++++++++++++++
Fecha: Wed Apr 22 13:16:47 CEST 2009
Usuario: evoflor
Presente Oscuro Del Espectro: Sí
La Referencia de Presente Del Espectro De: Sí
Muestreados de los componentes de Número de espectros: 1
Espectrómetros: USB4F02353
Tiempo de integración (usec): 500000 (USB4F02353)
Promedio de Espectros Hechos un: 5 (USB4F02353)
El Alisar Del Furgón: 0 (USB4F02353)
Párrafo de de Corregir del la del del de Eléctrica del obscuridad: Sí (USB4F02353)
Estrobo/Lámpara Permitido: No (USB4F02353)
Correct for Detector Non-linearity: No (USB4F02353)
Párrafo de de Corregir del la del del de Externa del luz: No (USB4F02353)
Procesado del espectro de Número de pixeles en: 3648
>>>>> Comienza Data<<<<< Espectral Procesado Del EL
177,79	345,176
178,00	345,176
178,22	345,176
178,44	2180,055
178,66	-268,395
178,88	262,166
179,09	-312,404
179,31	202,809
179,53	653,607
179,75	405,467
179,96	764,784
180,18	-464,046
180,40	597,818
180,62	209,058
180,83	-1,591
181,05	-2025,793
181,27	-104915,000
181,49	-75,467
181,70	247,750
181,92	1012,259
182,14	475,949
182,36	47,199
182,58	804,850
182,79	1127,299
183,01	-77,121
183,23	140,972
183,45	-37,585
183,66	-221,305
183,88	664,794
184,10	-2300,273
184,32	388,899
184,53	273,866
184,75	-419,526
184,97	-4,454
185,18	-224,276
185,40	-673,149
185,62	192,464
185,84	24,705
186,05	90,962
186,27	-185,962
186,49	3931,346
186,71	-7,766
186,92	215,012
187,14	-279,561
187,36	153,764
187,58	97,770
187,79	-115,676
188,01	256,747
188,23	-147,202
188,45	19,429
188,66	468,371
188,88	-3298,455
189,10	-2453,150
189,31	-23,916
189,53	-13,841
189,75	483,898
189,97	514,288
190,18	-225,687
190,40	918,912
190,62	-332,280
190,83	-272,403
191,05	141,041
191,27	178,900
191,49	302,017
191,70	-521,707
191,92	-454,364
192,14	-119,552
192,35	669,801
192,57	4540,429
192,79	8,812
193,01	256,508
193,22	122,751
193,44	-129,889
193,66	117,568
193,87	301,745
194,09	10,212
194,31	294,574
194,53	179,825
194,74	85,024
194,96	93,881
195,18	124,487
195,39	-279,195
195,61	-187,078
195,83	-169,380
196,04	148,346
196,26	200,930
196,48	-16,353
196,70	400,030
196,91	12,858
197,13	8,139
197,35	91,931
197,56	918,313
197,78	2005,336
198,00	305,699
198,21	107,354
198,43	-1447,180
198,65	180,672
198,86	286,745
199,08	-98,639
199,30	186,872
199,51	-529,365
199,73	294,743
199,95	444,592
200,16	732,365
200,38	291,752
200,60	267,782
200,81	236,221
201,03	424,497
201,25	-1598,150
201,46	187,527
201,68	117,545
201,90	2159,432
202,11	-685,553
202,33	298,232
202,55	1401,437
202,76	-197,271
202,98	321,655
203,20	79,736
203,41	-732,184
203,63	163,839
203,85	-104915,000
204,06	201,659
204,28	-57,627
204,50	165,576
204,71	481,122
204,93	18,520
205,15	256,370
205,36	-162,744
205,58	216,919
205,80	-171,583
206,01	118,094
206,23	118,163
206,45	248,145
206,66	207,261
206,88	-97,672
207,10	299,807
207,31	476,311
207,53	119,757
207,75	125,496
207,96	890,410
208,18	-240,469
208,39	115,155
208,61	3229,000
208,83	-517,643
209,04	288,255
209,26	-412,972
209,48	145,954
209,69	250,508
209,91	770,997
210,13	69,766
210,34	79,697
210,56	208,311
210,77	-1513,504
210,99	193,560
211,21	5112,647
211,42	-297,686
211,64	-30,677
211,86	156,980
212,07	171,120
212,29	221,337
212,50	127,149
212,72	507,365
212,94	201,414
213,15	202,945
213,37	145,026
213,58	-57,018
213,80	-821,964
214,02	15700,882
214,23	477,217
214,45	456,115
214,67	-1301,402
214,88	-267,500
215,10	-351,083
215,31	-6,736
215,53	-7,011
215,75	238,809
215,96	1903,820
216,18	1566,408
216,39	267,337
216,61	596,539
216,83	460,335
217,04	1370,955
217,26	60,347
217,47	181,132
217,69	344,956
217,91	58,982
218,12	-45515,000
218,34	225,591
218,55	528,952
218,77	102,510
218,99	100,616
219,20	-158,309
219,42	454,901
219,63	-192,996
219,85	-66,872
220,06	12,365
220,28	151,475
220,50	194,077
220,71	105,303
220,93	2743,679
221,14	-1814,150
221,36	31,711
221,58	-179,300
221,79	201,731
222,01	1463,060
222,22	382,336
222,44	-631,292
222,65	153,148
222,87	242,762
223,09	196,765
223,30	73,949
223,52	131,332
223,73	158,229
223,95	3,261
224,16	184,773
224,38	325,391
224,60	162,764
224,81	42,958
225,03	112,572
225,24	233,990
225,46	132,417
225,67	43,791
225,89	101,983
226,10	652,154
226,32	990,520
226,54	-51,092
226,75	43,939
226,97	147,603
227,18	193,005
227,40	28,002
227,61	81,029
227,83	6,693
228,04	143,830
228,26	51,852
228,47	65,591
228,69	261,808
228,91	173,004
229,12	85,592
229,34	28,538
229,55	65,754
229,77	34,202
229,98	-11,379
230,20	96,942
230,41	59,308
230,63	119,318
230,84	18,615
231,06	31,167
231,27	36,990
231,49	72,593
231,71	53,204
231,92	49,775
232,14	46,175
232,35	89,139
232,57	40,698
232,78	10,025
233,00	80,383
233,21	39,047
233,43	26,438
233,64	34,067
233,86	58,852
234,07	48,408
234,29	20,526
234,50	1,536
234,72	59,349
234,93	33,390
235,15	12,244
235,36	36,525
235,58	37,694
235,79	52,146
236,01	17,297
236,22	12,394
236,44	37,731
236,65	26,820
236,87	30,298
237,08	11,655
237,30	5,943
237,51	27,918
237,73	-2,928
237,94	14,231
238,16	23,429
238,37	12,348
238,59	13,117
238,80	13,595
239,02	7,944
239,23	14,913
239,45	9,473
239,66	28,531
239,88	45,194
240,09	24,419
240,31	12,229
240,52	5,707
240,74	16,929
240,95	10,417
241,17	10,762
241,38	18,283
241,60	19,791
241,81	26,147
242,03	11,176
242,24	17,439
242,46	26,364
242,67	5,304
242,89	8,391
243,10	17,024
243,32	18,216
243,53	20,505
243,75	4,157
243,96	11,336
244,18	7,393
244,39	13,836
244,60	10,685
244,82	6,187
245,03	26,416
245,25	10,496
245,46	32,964
245,68	3,450
245,89	26,648
246,11	23,680
246,32	9,581
246,54	5,511
246,75	10,934
246,97	15,415
247,18	25,445
247,39	7,175
247,61	11,569
247,82	18,482
248,04	10,191
248,25	8,206
248,47	11,209
248,68	13,362
248,90	6,392
249,11	7,950
249,33	20,909
249,54	7,566
249,75	8,488
249,97	8,156
250,18	16,768
250,40	17,533
250,61	-8,363
250,83	2,854
251,04	6,950
251,25	14,863
251,47	0,180
251,68	14,166
251,90	8,955
252,11	14,300
252,33	4,267
252,54	6,812
252,76	10,027
252,97	6,218
253,18	4,693
253,40	7,687
253,61	1,737
253,83	12,603
254,04	8,427
254,25	5,499
254,47	5,083
254,68	11,853
254,90	2,156
255,11	10,538
255,33	9,250
255,54	4,673
255,75	5,619
255,97	6,979
256,18	8,480
256,40	8,264
256,61	8,308
256,82	1,951
257,04	10,902
257,25	1,107
257,47	6,402
257,68	4,524
257,89	9,578
258,11	12,336
258,32	4,999
258,54	8,906
258,75	10,260
258,96	14,839
259,18	3,835
259,39	4,320
259,61	13,594
259,82	5,404
260,03	7,197
260,25	7,834
260,46	5,455
260,68	5,112
260,89	5,303
261,10	7,149
261,32	9,620
261,53	4,550
261,75	7,494
261,96	1,271
262,17	9,498
262,39	10,568
262,60	2,261
262,81	-1,056
263,03	10,776
263,24	8,745
263,46	6,912
263,67	4,154
263,88	5,868
264,10	6,203
264,31	3,093
264,52	6,154
264,74	7,468
264,95	6,016
265,17	7,648
265,38	3,760
265,59	8,113
265,81	7,413
266,02	1,815
266,23	1,365
266,45	12,971
266,66	11,664
266,87	9,371
267,09	4,319
267,30	10,611
267,52	7,633
267,73	6,941
267,94	3,813
268,16	11,738
268,37	5,992
268,58	3,435
268,80	3,913
269,01	8,630
269,22	9,202
269,44	8,094
269,65	5,195
269,86	-2,450
270,08	9,766
270,29	1,498
270,50	5,752
270,72	11,493
270,93	6,411
271,14	-0,929
271,36	5,010
271,57	9,713
271,78	6,661
272,00	7,077
272,21	6,092
272,42	9,026
272,64	5,120
272,85	2,220
273,06	3,613
273,28	11,952
273,49	7,018
273,70	9,008
273,92	7,472
274,13	10,640
274,34	5,030
274,56	8,578
274,77	2,334
274,98	7,871
275,20	7,008
275,41	6,829
275,62	7,041
275,84	7,319
276,05	13,097
276,26	3,335
276,47	2,602
276,69	12,337
276,90	8,360
277,11	3,394
277,33	3,627
277,54	7,643
277,75	11,494
277,97	5,234
278,18	2,428
278,39	8,559
278,61	6,969
278,82	9,805
279,03	7,459
279,24	5,397
279,46	5,338
279,67	7,073
279,88	4,326
280,10	11,219
280,31	2,706
280,52	4,854
280,73	1,238
280,95	7,426
281,16	8,818
281,37	3,467
281,59	7,614
281,80	15,559
282,01	5,076
282,22	5,688
282,44	3,278
282,65	15,340
282,86	6,952
283,08	5,311
283,29	6,747
283,50	5,750
283,71	8,117
283,93	6,516
284,14	10,052
284,35	7,929
284,56	6,892
284,78	4,452
284,99	7,109
285,20	10,893
285,42	6,490
285,63	5,468
285,84	3,772
286,05	6,041
286,27	4,995
286,48	2,843
286,69	2,852
286,90	3,503
287,12	2,138
287,33	4,431
287,54	0,711
287,75	8,193
287,97	7,847
288,18	4,804
288,39	3,577
288,60	8,319
288,82	7,065
289,03	3,791
289,24	4,910
289,45	7,539
289,67	5,661
289,88	0,897
290,09	4,268
290,30	5,162
290,52	4,512
290,73	6,799
290,94	1,637
291,15	6,318
291,37	8,331
291,58	6,430
291,79	3,592
292,00	4,012
292,21	6,275
292,43	2,961
292,64	4,276
292,85	5,104
293,06	8,637
293,28	0,830
293,49	1,335
293,70	7,463
293,91	11,517
294,12	6,859
294,34	4,952
294,55	7,048
294,76	7,780
294,97	4,978
295,19	0,552
295,40	6,254
295,61	5,560
295,82	1,742
296,03	5,499
296,25	3,384
296,46	3,133
296,67	0,745
296,88	0,470
297,09	6,230
297,31	6,365
297,52	5,493
297,73	2,591
297,94	9,190
298,15	7,022
298,37	4,337
298,58	6,424
298,79	9,240
299,00	2,510
299,21	3,142
299,43	3,515
299,64	6,891
299,85	5,868
300,06	4,141
300,27	2,900
300,49	9,578
300,70	5,477
300,91	4,573
301,12	4,812
301,33	8,928
301,54	5,003
301,76	5,823
301,97	4,218
302,18	4,641
302,39	7,690
302,60	13,968
302,82	4,459
303,03	10,686
303,24	4,945
303,45	6,769
303,66	3,581
303,87	3,003
304,09	8,648
304,30	4,194
304,51	3,327
304,72	6,666
304,93	7,916
305,14	4,065
305,36	3,210
305,57	1,543
305,78	6,144
305,99	2,787
306,20	5,209
306,41	4,871
306,62	2,975
306,84	3,316
307,05	3,024
307,26	5,838
307,47	7,306
307,68	4,193
307,89	3,067
308,11	8,569
308,32	4,352
308,53	3,343
308,74	4,052
308,95	4,935
309,16	8,507
309,37	6,546
309,59	3,983
309,80	7,041
310,01	5,923
310,22	5,693
310,43	4,184
310,64	6,531
310,85	8,749
311,06	3,921
311,28	4,470
311,49	5,291
311,70	7,896
311,91	1,673
312,12	3,022
312,33	2,499
312,54	6,289
312,75	4,021
312,97	3,601
313,18	6,284
313,39	4,006
313,60	3,132
313,81	5,419
314,02	6,083
314,23	7,598
314,44	1,821
314,65	4,607
314,87	3,876
315,08	3,235
315,29	6,552
315,50	7,233
315,71	8,913
315,92	10,722
316,13	6,285
316,34	5,325
316,55	5,219
316,77	0,569
316,98	4,338
317,19	4,364
317,40	9,094
317,61	9,423
317,82	2,770
318,03	3,230
318,24	3,797
318,45	8,390
318,66	3,732
318,87	0,380
319,09	5,520
319,30	7,581
319,51	6,846
319,72	5,586
319,93	6,573
320,14	8,651
320,35	8,167
320,56	3,639
320,77	4,287
320,98	8,817
321,19	4,518
321,40	4,517
321,62	10,642
321,83	2,343
322,04	5,949
322,25	3,371
322,46	9,528
322,67	7,468
322,88	7,048
323,09	2,024
323,30	9,881
323,51	9,736
323,72	7,653
323,93	2,387
324,14	5,549
324,35	2,978
324,56	1,784
324,77	4,467
324,99	6,529
325,20	1,786
325,41	6,492
325,62	6,232
325,83	4,318
326,04	4,175
326,25	6,666
326,46	1,658
326,67	5,757
326,88	4,202
327,09	2,241
327,30	2,263
327,51	5,457
327,72	6,003
327,93	6,270
328,14	1,816
328,35	5,356
328,56	6,093
328,77	7,281
328,98	7,744
329,19	7,000
329,40	4,195
329,61	1,729
329,82	1,899
330,04	5,155
330,25	5,009
330,46	3,576
330,67	2,473
330,88	4,711
331,09	3,960
331,30	5,108
331,51	4,647
331,72	7,620
331,93	7,905
332,14	2,509
332,35	5,203
332,56	4,008
332,77	7,115
332,98	2,721
333,19	5,245
333,40	6,599
333,61	2,278
333,82	7,178
334,03	7,328
334,24	8,759
334,45	6,986
334,66	4,725
334,87	5,265
335,08	2,506
335,29	2,904
335,50	3,014
335,71	3,397
335,92	6,814
336,13	8,447
336,34	4,740
336,55	4,973
336,76	9,196
336,97	6,942
337,18	3,100
337,39	2,915
337,60	5,534
337,81	4,123
338,02	6,204
338,23	4,239
338,44	6,475
338,65	6,152
338,86	7,306
339,07	3,529
339,28	6,013
339,49	6,278
339,70	1,163
339,91	4,790
340,11	8,987
340,32	3,489
340,53	2,641
340,74	3,598
340,95	2,912
341,16	7,024
341,37	3,085
341,58	4,943
341,79	4,712
342,00	6,177
342,21	5,575
342,42	4,070
342,63	7,918
342,84	4,149
343,05	2,592
343,26	8,127
343,47	7,583
343,68	4,754
343,89	2,017
344,10	4,494
344,31	7,759
344,52	4,751
344,73	3,869
344,94	5,231
345,14	6,688
345,35	4,485
345,56	5,458
345,77	3,439
345,98	6,298
346,19	5,371
346,40	4,972
346,61	5,644
346,82	6,859
347,03	6,323
347,24	6,746
347,45	3,377
347,66	9,664
347,87	4,200
348,08	6,583
348,28	-0,725
348,49	5,897
348,70	7,451
348,91	5,052
349,12	1,157
349,33	17,305
349,54	6,321
349,75	6,916
349,96	4,166
350,17	4,362
350,38	3,232
350,59	5,955
350,80	3,201
351,00	6,324
351,21	9,811
351,42	8,227
351,63	3,030
351,84	8,979
352,05	9,957
352,26	4,723
352,47	4,280
352,68	7,023
352,89	9,327
353,09	6,218
353,30	3,147
353,51	5,380
353,72	11,255
353,93	10,157
354,14	3,747
354,35	5,937
354,56	8,158
354,77	4,539
354,98	1,034
355,18	5,453
355,39	11,720
355,60	3,423
355,81	5,502
356,02	6,997
356,23	5,868
356,44	3,975
356,65	5,340
356,85	11,274
357,06	7,700
357,27	5,410
357,48	3,705
357,69	7,886
357,90	9,878
358,11	4,137
358,32	3,448
358,52	7,913
358,73	6,369
358,94	4,027
359,15	8,682
359,36	6,177
359,57	6,116
359,78	4,004
359,98	4,460
360,19	3,511
360,40	5,569
360,61	8,784
360,82	5,403
361,03	8,205
361,24	7,885
361,44	3,556
361,65	6,042
361,86	1,031
362,07	6,719
362,28	4,572
362,49	0,474
362,70	3,009
362,90	6,091
363,11	3,814
363,32	1,928
363,53	8,551
363,74	5,251
363,95	9,907
364,15	7,530
364,36	10,508
364,57	5,265
364,78	3,613
364,99	7,225
365,20	6,506
365,40	10,512
365,61	4,788
365,82	8,445
366,03	8,103
366,24	5,598
366,45	4,078
366,65	3,811
366,86	5,287
367,07	10,282
367,28	4,710
367,49	3,877
367,69	8,198
367,90	6,312
368,11	5,459
368,32	2,410
368,53	9,426
368,73	8,284
368,94	5,238
369,15	3,615
369,36	7,502
369,57	5,906
369,78	3,796
369,98	8,276
370,19	10,126
370,40	6,515
370,61	5,176
370,82	5,823
371,02	9,372
371,23	9,545
371,44	4,785
371,65	5,513
371,85	11,255
372,06	7,924
372,27	2,819
372,48	4,797
372,69	6,305
372,89	1,485
373,10	6,855
373,31	4,291
373,52	4,637
373,73	11,043
373,93	10,922
374,14	4,998
374,35	8,778
374,56	8,962
374,76	3,770
374,97	6,560
375,18	9,101
375,39	5,340
375,60	6,996
375,80	6,859
376,01	6,364
376,22	7,477
376,43	8,716
376,63	4,245
376,84	6,176
377,05	8,631
377,26	5,423
377,46	5,310
377,67	3,065
377,88	7,481
378,09	6,950
378,29	1,710
378,50	6,749
378,71	9,511
378,92	4,876
379,12	6,353
379,33	6,055
379,54	4,345
379,75	8,833
379,95	3,994
380,16	6,111
380,37	8,231
380,58	6,793
380,78	8,894
380,99	6,143
381,20	6,398
381,41	5,646
381,61	6,720
381,82	5,153
382,03	4,432
382,24	10,272
382,44	5,625
382,65	5,531
382,86	6,516
383,06	9,565
383,27	3,990
383,48	7,823
383,69	7,704
383,89	5,704
384,10	6,541
384,31	6,960
384,51	12,338
384,72	9,486
384,93	2,255
385,14	4,696
385,34	7,301
385,55	5,420
385,76	5,328
385,96	6,377
386,17	8,402
386,38	10,041
386,59	9,495
386,79	9,235
387,00	10,760
387,21	10,901
387,41	6,461
387,62	4,052
387,83	12,100
388,03	8,156
388,24	0,552
388,45	8,834
388,66	10,073
388,86	8,375
389,07	4,554
389,28	11,358
389,48	8,260
389,69	7,699
389,90	5,853
390,10	10,171
390,31	12,534
390,52	3,338
390,72	6,120
390,93	8,637
391,14	6,378
391,34	6,905
391,55	12,940
391,76	11,601
391,96	10,444
392,17	5,006
392,38	11,608
392,58	11,005
392,79	9,517
393,00	4,125
393,20	6,352
393,41	7,552
393,62	10,337
393,82	10,341
394,03	8,431
394,24	9,270
394,44	15,817
394,65	8,961
394,86	6,625
395,06	10,110
395,27	6,383
395,48	5,584
395,68	11,298
395,89	10,542
396,10	10,906
396,30	4,198
396,51	7,215
396,72	12,161
396,92	5,181
397,13	9,370
397,34	7,181
397,54	13,104
397,75	11,799
397,95	7,516
398,16	7,838
398,37	7,351
398,57	9,122
398,78	10,844
398,99	12,495
399,19	11,982
399,40	16,748
399,60	9,156
399,81	10,963
400,02	15,013
400,22	11,252
400,43	9,249
400,64	11,138
400,84	6,218
401,05	12,917
401,25	13,499
401,46	9,616
401,67	15,036
401,87	11,038
402,08	7,571
402,29	8,296
402,49	15,314
402,70	16,703
402,90	8,296
403,11	11,899
403,32	11,309
403,52	14,996
403,73	13,994
403,93	15,423
404,14	20,175
404,35	15,140
404,55	10,058
404,76	11,877
404,96	14,990
405,17	16,500
405,38	15,646
405,58	11,752
405,79	17,163
405,99	17,178
406,20	13,910
406,40	8,471
406,61	18,312
406,82	14,582
407,02	15,480
407,23	16,091
407,43	13,342
407,64	16,230
407,85	14,237
408,05	11,296
408,26	23,538
408,46	21,983
408,67	14,522
408,87	16,022
409,08	16,118
409,29	25,059
409,49	19,538
409,70	17,347
409,90	19,805
410,11	17,120
410,31	21,248
410,52	16,937
410,72	18,781
410,93	19,641
411,14	19,592
411,34	14,148
411,55	20,708
411,75	21,839
411,96	18,972
412,16	20,648
412,37	18,955
412,57	18,643
412,78	23,252
412,99	19,380
413,19	23,490
413,40	18,870
413,60	17,558
413,81	17,815
414,01	22,803
414,22	21,620
414,42	18,709
414,63	17,085
414,83	22,388
415,04	22,519
415,24	17,582
415,45	17,941
415,65	21,115
415,86	22,770
416,07	21,051
416,27	23,263
416,48	26,373
416,68	28,368
416,89	15,857
417,09	20,489
417,30	26,975
417,50	22,574
417,71	22,358
417,91	22,989
418,12	20,022
418,32	23,528
418,53	18,857
418,73	18,605
418,94	22,321
419,14	24,869
419,35	21,922
419,55	24,360
419,76	23,027
419,96	23,859
420,17	22,036
420,37	23,382
420,58	29,973
420,78	23,121
420,99	23,012
421,19	27,886
421,40	25,377
421,60	27,899
421,81	19,859
422,01	25,031
422,22	23,211
422,42	28,516
422,63	24,512
422,83	24,114
423,04	31,021
423,24	33,294
423,45	20,927
423,65	28,582
423,86	30,576
424,06	26,366
424,27	22,692
424,47	20,977
424,67	21,642
424,88	27,278
425,08	23,106
425,29	33,711
425,49	23,240
425,70	19,320
425,90	24,413
426,11	23,306
426,31	28,887
426,52	25,996
426,72	23,267
426,93	21,149
427,13	32,051
427,33	24,602
427,54	28,842
427,74	31,032
427,95	33,562
428,15	24,143
428,36	24,961
428,56	24,642
428,77	30,007
428,97	26,279
429,18	27,554
429,38	25,596
429,58	32,006
429,79	28,441
429,99	24,666
430,20	19,910
430,40	32,931
430,61	24,549
430,81	22,050
431,01	30,375
431,22	29,378
431,42	30,639
431,63	25,634
431,83	25,525
432,04	24,933
432,24	27,619
432,44	26,250
432,65	22,705
432,85	25,020
433,06	27,781
433,26	23,606
433,47	23,518
433,67	27,032
433,87	26,146
434,08	21,951
434,28	24,571
434,49	23,390
434,69	32,518
434,89	21,179
435,10	23,076
435,30	29,449
435,51	21,670
435,71	23,049
435,91	22,663
436,12	24,658
436,32	27,097
436,53	26,658
436,73	24,116
436,93	29,303
437,14	30,314
437,34	25,264
437,55	25,294
437,75	26,334
437,95	28,194
438,16	26,232
438,36	25,917
438,57	23,090
438,77	27,710
438,97	27,291
439,18	31,107
439,38	27,368
439,58	23,473
439,79	26,657
439,99	22,484
440,20	33,160
440,40	28,214
440,60	26,158
440,81	28,725
441,01	30,358
441,21	29,276
441,42	29,274
441,62	30,037
441,83	29,427
442,03	29,322
442,23	27,888
442,44	24,178
442,64	28,473
442,84	23,261
443,05	23,640
443,25	23,366
443,45	23,397
443,66	26,916
443,86	21,862
444,06	26,201
444,27	24,844
444,47	24,720
444,67	28,227
444,88	29,729
445,08	25,853
445,28	28,282
445,49	25,331
445,69	24,593
445,90	29,725
446,10	31,329
446,30	23,702
446,51	26,916
446,71	31,953
446,91	33,368
447,12	35,395
447,32	24,066
447,52	30,741
447,72	28,710
447,93	24,384
448,13	19,034
448,33	30,706
448,54	30,132
448,74	20,609
448,94	26,266
449,15	36,488
449,35	32,973
449,55	28,999
449,76	34,257
449,96	28,651
450,16	29,599
450,37	25,014
450,57	29,023
450,77	22,392
450,98	30,423
451,18	28,256
451,38	28,480
451,58	31,160
451,79	27,405
451,99	30,920
452,19	27,369
452,40	30,494
452,60	23,446
