Fichero De Datos De SpectraSuite
++++++++++++++++++++++++++++++++++++
Fecha: Wed Apr 22 13:17:20 CEST 2009
Usuario: evoflor
Presente Oscuro Del Espectro: Sí
La Referencia de Presente Del Espectro De: Sí
Muestreados de los componentes de Número de espectros: 1
Espectrómetros: USB4F02353
Tiempo de integración (usec): 500000 (USB4F02353)
Promedio de Espectros Hechos un: 5 (USB4F02353)
El Alisar Del Furgón: 0 (USB4F02353)
Párrafo de de Corregir del la del del de Eléctrica del obscuridad: Sí (USB4F02353)
Estrobo/Lámpara Permitido: No (USB4F02353)
Correct for Detector Non-linearity: No (USB4F02353)
Párrafo de de Corregir del la del del de Externa del luz: No (USB4F02353)
Procesado del espectro de Número de pixeles en: 3648
>>>>> Comienza Data<<<<< Espectral Procesado Del EL
177,79	310,068
178,00	310,068
178,22	310,068
178,44	1885,055
178,66	-426,366
178,88	183,518
179,09	44,426
179,31	310,539
179,53	594,613
179,75	348,072
179,96	786,724
180,18	-585,415
180,40	643,185
180,62	569,125
180,83	8,926
181,05	-1639,756
181,27	-110160,000
181,49	-34,043
181,70	364,846
181,92	778,477
182,14	762,831
182,36	164,512
182,58	320,400
182,79	712,768
183,01	-89,380
183,23	124,718
183,45	-125,723
183,66	-144,956
183,88	356,824
184,10	-2281,091
184,32	20,941
184,53	254,133
184,75	-275,957
184,97	31,652
185,18	-110,639
185,40	-789,231
185,62	229,041
185,84	81,354
186,05	122,194
186,27	-235,709
186,49	3129,231
186,71	12,019
186,92	164,764
187,14	-161,326
187,36	104,378
187,58	129,369
187,79	-42,948
188,01	280,155
188,23	-231,136
188,45	113,730
188,66	475,714
188,88	-2706,545
189,10	-2487,600
189,31	-82,014
189,53	72,920
189,75	279,000
189,97	351,000
190,18	-237,940
190,40	663,882
190,62	-259,345
190,83	-468,210
191,05	175,135
191,27	170,743
191,49	482,079
191,70	-724,327
191,92	-643,729
192,14	-36,288
192,35	662,228
192,57	4227,429
192,79	-72,463
193,01	246,304
193,22	135,000
193,44	-191,058
193,66	93,094
193,87	-91,734
194,09	-0,392
194,31	141,018
194,53	1361,958
194,74	63,000
194,96	62,609
195,18	158,816
195,39	-547,124
195,61	-68,037
195,83	-370,565
196,04	142,250
196,26	-69,648
196,48	24,239
196,70	320,994
196,91	99,170
197,13	199,139
197,35	-38,853
197,56	513,808
197,78	2031,045
198,00	329,790
198,21	560,971
198,43	-1325,930
198,65	119,594
198,86	279,712
199,08	157,574
199,30	284,939
199,51	-490,749
199,73	158,431
199,95	214,752
200,16	697,154
200,38	356,481
200,60	114,779
200,81	395,846
201,03	162,391
201,25	-2271,600
201,46	158,400
201,68	18,153
201,90	1276,364
202,11	-283,053
202,33	241,400
202,55	308,250
202,76	-155,904
202,98	277,213
203,20	-334,904
203,41	-916,105
203,63	176,307
203,85	-213660,000
204,06	249,327
204,28	70,699
204,50	101,327
204,71	194,629
204,93	17,280
205,15	163,735
205,36	-153,843
205,58	176,891
205,80	-190,626
206,01	33,158
206,23	180,480
206,45	285,964
206,66	230,115
206,88	9,983
207,10	248,318
207,31	375,974
207,53	80,743
207,75	95,167
207,96	694,478
208,18	-369,215
208,39	62,339
208,61	4098,857
208,83	-471,876
209,04	365,011
209,26	-163,410
209,48	285,209
209,69	343,161
209,91	816,081
210,13	14,944
210,34	101,114
210,56	200,479
210,77	-1434,331
210,99	205,919
211,21	7432,941
211,42	-138,482
211,64	-36,523
211,86	239,214
212,07	252,832
212,29	150,882
212,50	176,882
212,72	271,385
212,94	75,972
213,15	186,956
213,37	139,329
213,58	-116,541
213,80	-1555,714
214,02	13944,706
214,23	320,912
214,45	576,590
214,67	-1354,390
214,88	-457,248
215,10	-271,585
215,31	-24,760
215,53	125,591
215,75	241,670
215,96	1936,398
216,18	-628,732
216,39	174,492
216,61	438,996
216,83	447,589
217,04	1925,393
217,26	129,774
217,47	154,368
217,69	278,710
217,91	-128,505
218,12	-98460,000
218,34	163,486
218,55	514,218
218,77	58,378
218,99	124,810
219,20	-91,925
219,42	490,335
219,63	-167,719
219,85	-180,250
220,06	150,231
220,28	215,796
220,50	22,073
220,71	114,156
220,93	3929,434
221,14	-1722,600
221,36	-14,455
221,58	-61,200
221,79	177,385
222,01	623,793
222,22	547,105
222,44	-582,472
222,65	119,935
222,87	468,252
223,09	121,450
223,30	70,686
223,52	168,059
223,73	231,289
223,95	61,352
224,16	171,464
224,38	384,739
224,60	112,255
224,81	144,919
225,03	119,339
225,24	278,565
225,46	67,874
225,67	49,969
225,89	39,346
226,10	505,301
226,32	780,480
226,54	-12,952
226,75	-55,321
226,97	181,912
227,18	146,961
227,40	101,733
227,61	40,577
227,83	25,103
228,04	158,639
228,26	78,512
228,47	84,453
228,69	205,030
228,91	196,087
229,12	122,927
229,34	32,755
229,55	61,034
229,77	31,846
229,98	29,822
230,20	29,559
230,41	13,342
230,63	163,464
230,84	69,377
231,06	44,357
231,27	18,537
231,49	43,696
231,71	9,969
231,92	37,323
232,14	33,940
232,35	50,650
232,57	71,100
232,78	24,008
233,00	53,596
233,21	56,187
233,43	5,997
233,64	13,819
233,86	49,857
234,07	32,367
234,29	17,697
234,50	29,307
234,72	41,398
234,93	12,611
235,15	16,380
235,36	26,230
235,58	40,596
235,79	41,780
236,01	33,761
236,22	22,113
236,44	72,624
236,65	32,203
236,87	23,873
237,08	7,201
237,30	3,080
237,51	21,053
237,73	-0,902
237,94	3,659
238,16	32,195
238,37	7,886
238,59	13,093
238,80	5,792
239,02	3,050
239,23	17,569
239,45	-6,545
239,66	20,701
239,88	33,126
240,09	15,903
240,31	4,205
240,52	3,870
240,74	17,126
240,95	16,153
241,17	-2,795
241,38	11,708
241,60	7,154
241,81	28,146
242,03	6,525
242,24	10,098
242,46	23,824
242,67	6,547
242,89	6,922
243,10	18,536
243,32	20,209
243,53	13,672
243,75	6,422
243,96	9,837
244,18	11,820
244,39	16,245
244,60	5,421
244,82	-4,208
245,03	18,958
245,25	12,359
245,46	23,506
245,68	5,962
245,89	15,767
246,11	17,893
246,32	8,576
246,54	6,455
246,75	10,676
246,97	10,083
247,18	18,658
247,39	3,689
247,61	7,392
247,82	16,398
248,04	7,642
248,25	2,954
248,47	9,067
248,68	12,855
248,90	2,519
249,11	6,780
249,33	18,523
249,54	10,012
249,75	9,975
249,97	3,898
250,18	10,793
250,40	18,519
250,61	-8,887
250,83	0,979
251,04	6,306
251,25	11,091
251,47	0,070
251,68	10,465
251,90	6,069
252,11	8,713
252,33	4,162
252,54	6,524
252,76	5,226
252,97	-0,838
253,18	2,206
253,40	5,337
253,61	-0,171
253,83	11,295
254,04	6,929
254,25	4,089
254,47	1,841
254,68	9,065
254,90	8,851
255,11	4,975
255,33	7,370
255,54	6,166
255,75	1,494
255,97	7,193
256,18	2,043
256,40	7,428
256,61	7,786
256,82	-3,602
257,04	8,616
257,25	2,273
257,47	3,926
257,68	-0,950
257,89	9,397
258,11	8,306
258,32	2,901
258,54	5,673
258,75	16,740
258,96	8,330
259,18	0,229
259,39	1,263
259,61	11,040
259,82	3,561
260,03	8,934
260,25	3,335
260,46	1,919
260,68	2,310
260,89	0,976
261,10	0,259
261,32	4,774
261,53	3,568
261,75	5,050
261,96	-1,148
262,17	8,948
262,39	9,449
262,60	1,196
262,81	-1,229
263,03	7,463
263,24	8,547
263,46	1,656
263,67	0,283
263,88	5,207
264,10	6,690
264,31	1,510
264,52	3,762
264,74	9,218
264,95	1,381
265,17	2,703
265,38	3,157
265,59	10,599
265,81	7,567
266,02	-0,183
266,23	0,706
266,45	9,341
266,66	13,158
266,87	5,300
267,09	3,278
267,30	8,367
267,52	7,506
267,73	0,242
267,94	3,472
268,16	3,560
268,37	6,205
268,58	3,651
268,80	2,239
269,01	2,234
269,22	5,940
269,44	9,615
269,65	5,380
269,86	-2,875
270,08	5,193
270,29	2,476
270,50	4,295
270,72	6,719
270,93	4,061
271,14	-0,058
271,36	2,436
271,57	7,859
271,78	5,824
272,00	6,539
272,21	7,067
272,42	5,207
272,64	3,957
272,85	0,968
273,06	1,301
273,28	3,413
273,49	2,921
273,70	7,784
273,92	4,338
274,13	7,814
274,34	3,342
274,56	4,293
274,77	-0,377
274,98	6,166
275,20	4,471
275,41	6,685
275,62	3,768
275,84	4,716
276,05	12,093
276,26	3,188
276,47	0,757
276,69	8,225
276,90	5,681
277,11	1,962
277,33	1,471
277,54	7,637
277,75	6,300
277,97	1,729
278,18	2,846
278,39	5,250
278,61	3,576
278,82	3,866
279,03	5,517
279,24	3,925
279,46	3,404
279,67	4,836
279,88	4,220
280,10	8,768
280,31	0,790
280,52	4,975
280,73	0,013
280,95	8,894
281,16	6,493
281,37	3,493
281,59	6,962
281,80	11,691
282,01	0,683
282,22	2,474
282,44	0,867
282,65	7,579
282,86	7,162
283,08	3,024
283,29	2,834
283,50	5,154
283,71	5,177
283,93	5,507
284,14	6,624
284,35	3,826
284,56	4,616
284,78	-1,792
284,99	7,194
285,20	11,216
285,42	5,451
285,63	2,917
285,84	-1,526
286,05	0,347
286,27	2,386
286,48	0,458
286,69	0,362
286,90	1,958
287,12	2,477
287,33	1,285
287,54	0,879
287,75	5,000
287,97	6,039
288,18	2,043
288,39	1,169
288,60	3,647
288,82	4,494
289,03	5,118
289,24	3,667
289,45	7,397
289,67	5,410
289,88	0,693
290,09	4,462
290,30	4,616
290,52	4,670
290,73	0,199
290,94	-1,693
291,15	3,728
291,37	4,909
291,58	1,393
291,79	3,480
292,00	4,620
292,21	5,878
292,43	2,308
292,64	0,891
292,85	2,314
293,06	8,448
293,28	3,060
293,49	-0,860
293,70	8,928
293,91	1,484
294,12	1,792
294,34	5,549
294,55	2,744
294,76	4,459
294,97	5,239
295,19	1,782
295,40	3,971
295,61	4,666
295,82	-0,995
296,03	4,245
296,25	3,430
296,46	0,138
296,67	0,262
296,88	-2,065
297,09	6,324
297,31	2,525
297,52	3,949
297,73	0,648
297,94	6,021
298,15	5,278
298,37	2,768
298,58	3,741
298,79	5,560
299,00	2,203
299,21	1,574
299,43	0,545
299,64	7,325
299,85	6,329
300,06	0,340
300,27	1,262
300,49	7,866
300,70	2,936
300,91	3,441
301,12	2,943
301,33	8,362
301,54	3,808
301,76	1,548
301,97	2,026
302,18	1,105
302,39	5,813
302,60	12,767
302,82	1,483
303,03	8,345
303,24	4,325
303,45	4,577
303,66	0,309
303,87	3,376
304,09	6,707
304,30	2,586
304,51	2,050
304,72	2,504
304,93	5,146
305,14	2,703
305,36	-0,722
305,57	0,447
305,78	5,016
305,99	1,984
306,20	3,254
306,41	0,718
306,62	0,383
306,84	2,562
307,05	-1,141
307,26	5,218
307,47	7,547
307,68	2,658
307,89	2,696
308,11	6,835
308,32	2,820
308,53	2,031
308,74	-0,039
308,95	2,811
309,16	5,312
309,37	5,714
309,59	-0,734
309,80	4,043
310,01	4,472
310,22	6,713
310,43	1,140
310,64	3,638
310,85	4,487
311,06	2,705
311,28	3,692
311,49	2,673
311,70	5,982
311,91	0,779
312,12	1,692
312,33	3,380
312,54	3,422
312,75	1,699
312,97	0,109
313,18	5,965
313,39	3,637
313,60	1,017
313,81	2,021
314,02	4,465
314,23	7,892
314,44	1,118
314,65	2,354
314,87	0,863
315,08	2,501
315,29	3,279
315,50	5,399
315,71	4,063
315,92	6,946
316,13	3,682
316,34	4,162
316,55	5,582
316,77	-0,368
316,98	1,973
317,19	0,590
317,40	4,782
317,61	6,960
317,82	0,153
318,03	1,910
318,24	3,768
318,45	7,345
318,66	2,975
318,87	0,254
319,09	5,950
319,30	4,773
319,51	4,950
319,72	3,849
319,93	7,691
320,14	5,837
320,35	4,804
320,56	1,649
320,77	2,687
320,98	7,947
321,19	3,639
321,40	3,322
321,62	3,613
321,83	2,179
322,04	6,078
322,25	3,018
322,46	8,331
322,67	4,281
322,88	1,808
323,09	1,880
323,30	7,279
323,51	10,048
323,72	6,564
323,93	0,622
324,14	3,269
324,35	1,517
324,56	-0,268
324,77	2,652
324,99	1,896
325,20	-1,812
325,41	2,881
325,62	2,381
325,83	1,787
326,04	2,245
326,25	4,628
326,46	0,526
326,67	3,854
326,88	3,776
327,09	1,830
327,30	1,206
327,51	4,110
327,72	3,028
327,93	5,244
328,14	-0,453
328,35	2,656
328,56	3,937
328,77	3,850
328,98	4,800
329,19	4,780
329,40	5,037
329,61	2,985
329,82	-2,055
330,04	4,360
330,25	4,531
330,46	3,168
330,67	1,485
330,88	2,828
331,09	3,135
331,30	4,361
331,51	3,266
331,72	2,808
331,93	4,971
332,14	0,576
332,35	5,885
332,56	4,190
332,77	4,875
332,98	-0,384
333,19	2,350
333,40	3,474
333,61	4,010
333,82	6,633
334,03	4,494
334,24	6,608
334,45	4,783
334,66	4,850
334,87	2,397
335,08	1,468
335,29	0,700
335,50	3,009
335,71	2,239
335,92	6,863
336,13	6,871
336,34	1,407
336,55	1,469
336,76	5,954
336,97	2,745
337,18	0,564
337,39	2,362
337,60	4,553
337,81	3,815
338,02	3,845
338,23	4,532
338,44	1,928
338,65	3,303
338,86	5,050
339,07	1,714
339,28	5,642
339,49	1,185
339,70	-0,716
339,91	2,569
340,11	7,720
340,32	-0,206
340,53	-0,659
340,74	-0,471
340,95	-1,492
341,16	6,399
341,37	1,967
341,58	0,066
341,79	3,691
342,00	3,078
342,21	0,614
342,42	3,712
342,63	3,826
342,84	2,983
343,05	2,180
343,26	5,774
343,47	4,133
343,68	-0,017
343,89	3,383
344,10	4,570
344,31	4,826
344,52	3,326
344,73	0,649
344,94	3,922
345,14	0,618
345,35	5,390
345,56	4,017
345,77	4,837
345,98	3,687
346,19	4,056
346,40	5,368
346,61	3,271
346,82	1,983
347,03	4,544
347,24	4,470
347,45	2,868
347,66	9,169
347,87	1,290
348,08	4,936
348,28	0,240
348,49	4,676
348,70	4,074
348,91	5,190
349,12	-0,702
349,33	15,292
349,54	3,328
349,75	8,457
349,96	2,714
350,17	2,985
350,38	0,918
350,59	4,763
350,80	2,650
351,00	6,665
351,21	4,852
351,42	2,994
351,63	-2,045
351,84	5,068
352,05	7,295
352,26	2,981
352,47	1,530
352,68	8,044
352,89	4,551
353,09	5,951
353,30	-0,078
353,51	2,618
353,72	3,658
353,93	7,142
354,14	0,906
354,35	5,811
354,56	7,190
354,77	3,785
354,98	-3,128
355,18	8,563
355,39	11,630
355,60	3,649
355,81	4,793
356,02	6,390
356,23	2,184
356,44	0,162
356,65	3,092
356,85	9,252
357,06	8,202
357,27	2,038
357,48	-0,918
357,69	7,645
357,90	6,930
358,11	-0,104
358,32	4,487
358,52	6,587
358,73	2,966
358,94	2,376
359,15	4,344
359,36	4,850
359,57	2,773
359,78	5,186
359,98	1,033
360,19	1,307
360,40	4,330
360,61	6,738
360,82	3,776
361,03	9,294
361,24	9,388
361,44	0,194
361,65	1,798
361,86	-0,540
362,07	2,564
362,28	2,036
362,49	1,320
362,70	3,270
362,90	2,878
363,11	-0,700
363,32	0,382
363,53	2,387
363,74	10,158
363,95	6,724
364,15	2,988
364,36	5,798
364,57	4,811
364,78	2,330
364,99	3,147
365,20	3,686
365,40	6,979
365,61	0,561
365,82	5,086
366,03	5,603
366,24	1,631
366,45	1,172
366,65	4,424
366,86	1,688
367,07	3,956
367,28	2,766
367,49	2,892
367,69	7,399
367,90	0,990
368,11	3,077
368,32	0,925
368,53	8,178
368,73	5,817
368,94	1,812
369,15	3,244
369,36	8,126
369,57	2,703
369,78	3,978
369,98	7,637
370,19	9,066
370,40	2,127
370,61	1,255
370,82	0,681
371,02	5,295
371,23	6,644
371,44	0,455
371,65	4,446
371,85	8,733
372,06	3,825
372,27	3,030
372,48	5,918
372,69	4,016
372,89	3,597
373,10	3,689
373,31	4,220
373,52	4,541
373,73	9,304
373,93	4,380
374,14	3,646
374,35	4,561
374,56	6,553
374,76	1,243
374,97	2,235
375,18	5,198
375,39	5,798
375,60	3,079
375,80	4,801
376,01	4,356
376,22	5,862
376,43	6,089
376,63	3,510
376,84	2,388
377,05	3,030
377,26	1,740
377,46	0,233
377,67	2,739
377,88	5,595
378,09	3,264
378,29	2,159
378,50	4,164
378,71	5,957
378,92	2,818
379,12	4,047
379,33	2,573
379,54	-0,392
379,75	7,510
379,95	2,684
380,16	6,565
380,37	5,842
380,58	4,540
380,78	4,030
380,99	1,726
381,20	2,526
381,41	2,779
381,61	5,263
381,82	0,944
382,03	4,590
382,24	4,210
382,44	4,542
382,65	5,985
382,86	5,052
383,06	2,499
383,27	3,525
383,48	4,255
383,69	6,188
383,89	4,622
384,10	6,268
384,31	4,783
384,51	9,104
384,72	5,464
384,93	4,025
385,14	2,676
385,34	4,376
385,55	2,206
385,76	0,848
385,96	3,656
386,17	4,898
386,38	5,056
386,59	5,712
386,79	4,605
387,00	8,861
387,21	9,059
387,41	2,483
387,62	2,207
387,83	7,598
388,03	3,150
388,24	-0,886
388,45	5,527
388,66	3,780
388,86	7,061
389,07	0,284
389,28	11,216
389,48	6,169
389,69	6,778
389,90	2,701
390,10	9,402
390,31	7,717
390,52	-1,679
390,72	3,798
390,93	5,913
391,14	4,621
391,34	6,900
391,55	7,605
391,76	9,266
391,96	8,016
392,17	3,114
392,38	6,671
392,58	7,745
392,79	6,774
393,00	2,116
393,20	2,533
393,41	3,467
393,62	5,844
393,82	8,045
394,03	7,023
394,24	5,080
394,44	9,105
394,65	6,062
394,86	3,945
395,06	10,071
395,27	4,020
395,48	5,680
395,68	7,757
395,89	8,017
396,10	10,088
396,30	2,989
396,51	3,443
396,72	5,480
396,92	3,927
397,13	5,240
397,34	4,244
397,54	10,037
397,75	4,261
397,95	5,424
398,16	6,960
398,37	7,753
398,57	8,363
398,78	9,124
398,99	11,214
399,19	8,732
399,40	9,822
399,60	7,483
399,81	5,091
400,02	9,380
400,22	9,847
400,43	4,130
400,64	6,105
400,84	6,829
401,05	11,635
401,25	7,985
401,46	8,763
401,67	11,974
401,87	7,481
402,08	5,810
402,29	7,916
402,49	11,560
402,70	12,852
402,90	7,163
403,11	8,958
403,32	11,169
403,52	6,404
403,73	11,055
403,93	10,294
404,14	16,966
404,35	10,512
404,55	3,614
404,76	7,622
404,96	7,937
405,17	13,415
405,38	14,405
405,58	8,953
405,79	14,333
405,99	9,498
406,20	8,156
406,40	3,799
406,61	13,465
406,82	11,671
407,02	15,474
407,23	12,716
407,43	11,297
407,64	10,941
407,85	10,575
408,05	5,810
408,26	18,808
408,46	15,233
408,67	6,354
408,87	10,777
409,08	11,638
409,29	19,369
409,49	16,314
409,70	17,205
409,90	15,863
410,11	11,853
410,31	14,663
410,52	10,408
410,72	13,440
410,93	15,290
411,14	15,832
411,34	7,042
411,55	15,428
411,75	13,811
411,96	13,826
412,16	14,126
412,37	12,672
412,57	15,810
412,78	14,270
412,99	10,934
413,19	15,983
413,40	14,979
413,60	12,054
413,81	12,052
414,01	15,860
414,22	11,836
414,42	15,885
414,63	8,396
414,83	19,327
415,04	18,965
415,24	15,912
415,45	15,380
415,65	14,249
415,86	19,057
416,07	14,249
416,27	14,736
416,48	20,712
416,68	23,566
416,89	11,599
417,09	11,324
417,30	18,136
417,50	15,674
417,71	19,796
417,91	20,492
418,12	14,514
418,32	15,444
418,53	17,287
418,73	17,357
418,94	12,772
419,14	16,973
419,35	15,352
419,55	16,205
419,76	17,526
419,96	17,057
420,17	9,745
420,37	15,754
420,58	21,270
420,78	18,095
420,99	14,602
421,19	18,841
421,40	21,056
421,60	19,619
421,81	16,698
422,01	17,474
422,22	14,925
422,42	19,432
422,63	15,263
422,83	14,659
423,04	20,773
423,24	22,284
423,45	13,493
423,65	18,711
423,86	20,444
424,06	22,167
424,27	14,072
424,47	13,960
424,67	16,061
424,88	19,841
425,08	15,899
425,29	22,009
425,49	13,976
425,70	13,794
425,90	18,409
426,11	18,636
426,31	16,520
426,52	21,196
426,72	18,641
426,93	16,961
427,13	22,498
427,33	16,181
427,54	20,302
427,74	20,571
427,95	25,248
428,15	12,024
428,36	20,586
428,56	15,214
428,77	20,889
428,97	20,190
429,18	16,063
429,38	13,773
429,58	20,481
429,79	19,155
429,99	15,051
430,20	12,480
430,40	20,549
430,61	15,749
430,81	15,879
431,01	21,190
431,22	23,150
431,42	23,760
431,63	14,660
431,83	18,108
432,04	20,828
432,24	22,662
432,44	17,795
432,65	17,149
432,85	16,465
433,06	19,895
433,26	15,901
433,47	17,773
433,67	15,983
433,87	18,629
434,08	16,348
434,28	16,947
434,49	17,801
434,69	20,313
434,89	18,050
435,10	17,017
435,30	21,720
435,51	15,368
435,71	18,283
435,91	14,888
436,12	20,354
436,32	18,300
436,53	15,765
436,73	18,432
436,93	24,628
437,14	15,578
437,34	17,466
437,55	16,396
437,75	18,060
437,95	20,008
438,16	14,509
438,36	17,601
438,57	15,759
438,77	19,009
438,97	21,475
439,18	22,820
439,38	19,391
439,58	15,797
439,79	18,064
439,99	14,351
440,20	24,512
440,40	20,641
440,60	15,107
440,81	22,948
441,01	22,262
441,21	22,598
441,42	21,612
441,62	20,926
441,83	19,114
442,03	17,327
442,23	18,472
442,44	19,215
442,64	21,858
442,84	15,764
443,05	20,093
443,25	17,567
443,45	18,664
443,66	16,221
443,86	16,277
444,06	19,467
444,27	15,582
444,47	20,326
444,67	16,235
444,88	22,333
445,08	18,512
445,28	19,966
445,49	14,857
445,69	18,653
445,90	21,232
446,10	21,566
446,30	19,924
446,51	22,249
446,71	24,665
446,91	25,243
447,12	26,398
447,32	19,229
447,52	18,389
447,72	21,995
447,93	17,047
448,13	12,992
448,33	26,209
448,54	19,289
448,74	14,549
448,94	20,853
449,15	26,253
449,35	23,338
449,55	19,657
449,76	25,615
449,96	16,725
450,16	22,294
450,37	20,611
450,57	22,861
450,77	15,869
450,98	19,617
451,18	20,204
451,38	15,635
451,58	21,289
451,79	21,047
451,99	24,401
452,19	21,374
452,40	23,702
452,60	17,130
452,80	17,378
453,00	23,142
453,21	18,232
