Fichero De Datos De SpectraSuite
++++++++++++++++++++++++++++++++++++
Fecha: Wed Apr 22 13:25:17 CEST 2009
Usuario: evoflor
Presente Oscuro Del Espectro: Sí
La Referencia de Presente Del Espectro De: Sí
Muestreados de los componentes de Número de espectros: 1
Espectrómetros: USB4F02353
Tiempo de integración (usec): 500000 (USB4F02353)
Promedio de Espectros Hechos un: 5 (USB4F02353)
El Alisar Del Furgón: 0 (USB4F02353)
Párrafo de de Corregir del la del del de Eléctrica del obscuridad: Sí (USB4F02353)
Estrobo/Lámpara Permitido: No (USB4F02353)
Correct for Detector Non-linearity: No (USB4F02353)
Párrafo de de Corregir del la del del de Externa del luz: No (USB4F02353)
Procesado del espectro de Número de pixeles en: 3648
>>>>> Comienza Data<<<<< Espectral Procesado Del EL
177,79	232,659
178,00	232,659
178,22	232,659
178,44	2116,868
178,66	-214,947
178,88	483,827
179,09	-133,894
179,31	170,548
179,53	735,495
179,75	306,220
179,96	1085,905
180,18	-287,892
180,40	515,812
180,62	367,546
180,83	7,293
181,05	-1075,183
181,27	-132265,000
181,49	-103,620
181,70	131,404
181,92	712,513
182,14	544,774
182,36	70,621
182,58	495,350
182,79	915,915
183,01	-40,245
183,23	225,616
183,45	-38,662
183,66	67,854
183,88	809,794
184,10	-4041,182
184,32	452,141
184,53	193,736
184,75	-260,760
184,97	40,795
185,18	-289,220
185,40	-731,082
185,62	110,168
185,84	-0,076
186,05	117,273
186,27	-173,076
186,49	6264,038
186,71	48,593
186,92	76,137
187,14	-259,316
187,36	178,698
187,58	76,005
187,79	-17,728
188,01	407,519
188,23	7,770
188,45	2,950
188,66	112,344
188,88	-1095,727
189,10	-2123,650
189,31	-95,162
189,53	-31,268
189,75	411,057
189,97	221,404
190,18	-116,030
190,40	253,912
190,62	-392,103
190,83	-229,309
191,05	167,353
191,27	226,186
191,49	265,012
191,70	-536,370
191,92	-564,110
192,14	-32,740
192,35	668,342
192,57	2801,857
192,79	-23,201
193,01	223,566
193,22	33,627
193,44	-139,701
193,66	142,842
193,87	217,698
194,09	-61,659
194,31	305,639
194,53	484,371
194,74	111,718
194,96	20,671
195,18	207,917
195,39	-543,707
195,61	-130,427
195,83	-309,054
196,04	116,821
196,26	-153,593
196,48	-1,079
196,70	232,535
196,91	115,406
197,13	280,165
197,35	78,862
197,56	713,204
197,78	1994,515
198,00	937,517
198,21	476,044
198,43	-1449,215
198,65	208,864
198,86	566,421
199,08	150,377
199,30	287,783
199,51	-369,267
199,73	241,320
199,95	467,735
200,16	747,558
200,38	262,504
200,60	137,325
200,81	441,253
201,03	371,644
201,25	-2609,650
201,46	116,746
201,68	66,979
201,90	2842,386
202,11	-515,134
202,33	22,558
202,55	-146,687
202,76	-118,381
202,98	313,467
203,20	-138,293
203,41	-284,026
203,63	169,077
203,85	-118765,000
204,06	181,589
204,28	-314,373
204,50	142,210
204,71	378,383
204,93	-187,480
205,15	2,605
205,36	-211,597
205,58	184,770
205,80	-181,869
206,01	105,403
206,23	173,723
206,45	247,617
206,66	160,103
206,88	-58,933
207,10	163,557
207,31	400,483
207,53	120,757
207,75	63,475
207,96	1390,037
208,18	-155,060
208,39	85,625
208,61	5501,857
208,83	-452,145
209,04	325,621
209,26	-385,553
209,48	273,688
209,69	291,718
209,91	887,720
210,13	19,989
210,34	176,429
210,56	219,388
210,77	-2132,795
210,99	137,602
211,21	4550,882
211,42	-260,095
211,64	-60,651
211,86	235,622
212,07	407,030
212,29	278,736
212,50	128,183
212,72	20,635
212,94	168,621
213,15	224,432
213,37	166,783
213,58	-135,621
213,80	-2216,607
214,02	9897,941
214,23	402,308
214,45	392,344
214,67	-636,159
214,88	108,842
215,10	-415,079
215,31	5,819
215,53	-65,534
215,75	223,765
215,96	1497,919
216,18	-241,338
216,39	235,278
216,61	375,251
216,83	755,201
217,04	1344,551
217,26	55,105
217,47	188,612
217,69	327,325
217,91	176,379
218,12	-94465,000
218,34	84,593
218,55	503,621
218,77	61,710
218,99	97,360
219,20	-227,360
219,42	318,239
219,63	-193,742
219,85	-77,344
220,06	-27,827
220,28	292,615
220,50	72,775
220,71	143,531
220,93	4074,811
221,14	-2708,650
221,36	-122,113
221,58	-135,755
221,79	145,920
222,01	1768,664
222,22	514,901
222,44	181,629
222,65	142,835
222,87	12,343
223,09	118,070
223,30	127,424
223,52	48,259
223,73	168,474
223,95	-1,317
224,16	276,423
224,38	328,353
224,60	115,447
224,81	-4,258
225,03	137,737
225,24	109,319
225,46	113,563
225,67	-4,226
225,89	22,336
226,10	631,521
226,32	870,920
226,54	-29,464
226,75	3,056
226,97	145,301
227,18	144,604
227,40	-73,186
227,61	103,357
227,83	57,818
228,04	138,892
228,26	93,003
228,47	77,579
228,69	238,289
228,91	135,814
229,12	60,664
229,34	27,131
229,55	79,864
229,77	48,097
229,98	-13,618
230,20	105,217
230,41	1,764
230,63	105,304
230,84	50,877
231,06	4,002
231,27	23,893
231,49	55,528
231,71	28,067
231,92	36,176
232,14	14,671
232,35	108,965
232,57	39,102
232,78	23,578
233,00	47,297
233,21	58,881
233,43	11,050
233,64	12,961
233,86	54,216
234,07	58,544
234,29	9,551
234,50	8,171
234,72	33,089
234,93	-4,732
235,15	25,904
235,36	5,955
235,58	64,390
235,79	52,402
236,01	23,331
236,22	8,781
236,44	51,020
236,65	27,868
236,87	33,333
237,08	0,852
237,30	4,596
237,51	21,142
237,73	-8,067
237,94	11,078
238,16	21,612
238,37	9,657
238,59	13,303
238,80	15,814
239,02	9,852
239,23	24,573
239,45	-5,134
239,66	14,592
239,88	41,403
240,09	15,201
240,31	-1,392
240,52	11,683
240,74	16,322
240,95	7,842
241,17	5,237
241,38	2,890
241,60	10,624
241,81	24,868
242,03	4,167
242,24	12,156
242,46	20,742
242,67	3,215
242,89	4,056
243,10	19,012
243,32	21,906
243,53	19,769
243,75	5,876
243,96	6,387
244,18	13,171
244,39	8,802
244,60	10,782
244,82	1,842
245,03	18,579
245,25	9,082
245,46	25,187
245,68	2,453
245,89	20,888
246,11	14,303
246,32	3,311
246,54	7,255
246,75	6,500
246,97	14,736
247,18	18,632
247,39	-2,466
247,61	5,916
247,82	12,226
248,04	6,940
248,25	7,495
248,47	16,877
248,68	12,167
248,90	3,206
249,11	7,813
249,33	18,604
249,54	6,862
249,75	3,866
249,97	4,884
250,18	14,413
250,40	15,116
250,61	-6,456
250,83	1,966
251,04	2,303
251,25	14,721
251,47	-1,410
251,68	9,703
251,90	9,706
252,11	8,599
252,33	4,960
252,54	5,193
252,76	0,367
252,97	0,379
253,18	2,379
253,40	5,852
253,61	5,129
253,83	9,372
254,04	11,923
254,25	6,104
254,47	4,691
254,68	7,192
254,90	7,766
255,11	6,110
255,33	7,122
255,54	8,586
255,75	6,084
255,97	1,991
256,18	1,892
256,40	8,512
256,61	5,793
256,82	-1,010
257,04	10,661
257,25	4,179
257,47	8,805
257,68	4,162
257,89	10,985
258,11	10,645
258,32	2,089
258,54	9,425
258,75	16,890
258,96	15,143
259,18	4,910
259,39	0,514
259,61	4,132
259,82	7,296
260,03	4,874
260,25	8,052
260,46	6,581
260,68	2,501
260,89	3,079
261,10	1,294
261,32	6,168
261,53	2,731
261,75	10,027
261,96	1,287
262,17	13,203
262,39	13,838
262,60	4,148
262,81	1,037
263,03	10,712
263,24	6,847
263,46	0,777
263,67	3,633
263,88	5,883
264,10	8,721
264,31	-0,748
264,52	5,525
264,74	7,444
264,95	4,286
265,17	7,822
265,38	8,229
265,59	8,013
265,81	9,718
266,02	-0,440
266,23	-2,457
266,45	7,475
266,66	10,570
266,87	10,938
267,09	1,709
267,30	9,432
267,52	9,043
267,73	2,040
267,94	5,872
268,16	6,156
268,37	5,713
268,58	6,901
268,80	1,944
269,01	5,814
269,22	9,180
269,44	6,181
269,65	3,792
269,86	3,877
270,08	8,701
270,29	1,437
270,50	5,077
270,72	11,023
270,93	4,460
271,14	-0,915
271,36	-0,332
271,57	6,560
271,78	8,034
272,00	7,517
272,21	8,868
272,42	6,244
272,64	6,581
272,85	-0,808
273,06	2,267
273,28	9,676
273,49	6,852
273,70	7,947
273,92	3,443
274,13	8,181
274,34	4,679
274,56	7,142
274,77	0,711
274,98	5,810
275,20	2,601
275,41	5,914
275,62	5,977
275,84	5,964
276,05	12,387
276,26	2,220
276,47	4,242
276,69	7,453
276,90	8,231
277,11	2,851
277,33	4,265
277,54	8,005
277,75	6,629
277,97	2,400
278,18	-0,392
278,39	7,097
278,61	2,967
278,82	4,397
279,03	5,909
279,24	8,441
279,46	3,257
279,67	6,233
279,88	4,810
280,10	8,522
280,31	3,302
280,52	5,087
280,73	2,108
280,95	4,791
281,16	9,624
281,37	5,267
281,59	7,530
281,80	10,339
282,01	3,482
282,22	0,248
282,44	2,372
282,65	8,799
282,86	7,826
283,08	5,262
283,29	5,363
283,50	5,082
283,71	6,111
283,93	5,494
284,14	4,465
284,35	1,984
284,56	7,713
284,78	3,332
284,99	5,883
285,20	9,147
285,42	5,742
285,63	2,095
285,84	-0,432
286,05	2,463
286,27	2,889
286,48	4,550
286,69	1,577
286,90	3,340
287,12	3,955
287,33	2,857
287,54	1,329
287,75	5,725
287,97	7,077
288,18	5,010
288,39	1,562
288,60	4,207
288,82	4,566
289,03	2,691
289,24	4,432
289,45	7,330
289,67	4,055
289,88	1,902
290,09	4,534
290,30	6,662
290,52	3,222
290,73	2,825
290,94	-0,386
291,15	4,901
291,37	7,130
291,58	3,621
291,79	0,826
292,00	5,062
292,21	7,909
292,43	4,241
292,64	-0,688
292,85	3,936
293,06	6,505
293,28	2,181
293,49	-1,822
293,70	8,427
293,91	3,359
294,12	5,552
294,34	3,526
294,55	3,263
294,76	4,290
294,97	6,433
295,19	1,046
295,40	6,139
295,61	5,723
295,82	-1,341
296,03	3,698
296,25	5,385
296,46	2,172
296,67	-1,009
296,88	0,024
297,09	5,429
297,31	4,927
297,52	3,761
297,73	0,146
297,94	7,629
298,15	5,367
298,37	2,956
298,58	7,110
298,79	5,845
299,00	2,167
299,21	0,403
299,43	1,069
299,64	9,088
299,85	4,506
300,06	2,759
300,27	0,740
300,49	7,464
300,70	6,083
300,91	4,484
301,12	1,217
301,33	7,716
301,54	2,829
301,76	5,613
301,97	2,777
302,18	3,507
302,39	4,633
302,60	12,781
302,82	3,953
303,03	6,937
303,24	4,930
303,45	5,648
303,66	3,816
303,87	2,071
304,09	6,911
304,30	2,526
304,51	4,345
304,72	4,276
304,93	6,049
305,14	2,216
305,36	0,560
305,57	1,504
305,78	6,226
305,99	3,900
306,20	3,536
306,41	1,659
306,62	0,621
306,84	1,756
307,05	0,733
307,26	2,816
307,47	7,414
307,68	4,324
307,89	2,466
308,11	5,048
308,32	1,725
308,53	2,330
308,74	1,870
308,95	3,848
309,16	7,386
309,37	6,887
309,59	1,586
309,80	4,799
310,01	3,135
310,22	6,540
310,43	-0,072
310,64	5,943
310,85	7,420
311,06	2,719
311,28	4,198
311,49	3,170
311,70	7,083
311,91	2,452
312,12	1,586
312,33	3,465
312,54	6,275
312,75	4,127
312,97	1,458
313,18	6,511
313,39	2,531
313,60	2,230
313,81	3,029
314,02	4,575
314,23	6,140
314,44	1,252
314,65	4,374
314,87	2,356
315,08	2,943
315,29	3,701
315,50	3,584
315,71	6,452
315,92	6,984
316,13	4,577
316,34	5,745
316,55	7,355
316,77	-0,506
316,98	2,211
317,19	2,851
317,40	7,097
317,61	6,522
317,82	3,666
318,03	3,703
318,24	2,905
318,45	6,850
318,66	2,502
318,87	1,709
319,09	5,264
319,30	5,333
319,51	5,480
319,72	4,308
319,93	5,111
320,14	5,078
320,35	6,049
320,56	1,513
320,77	2,865
320,98	8,954
321,19	3,550
321,40	2,638
321,62	6,376
321,83	2,221
322,04	3,831
322,25	5,690
322,46	8,213
322,67	5,357
322,88	5,912
323,09	2,844
323,30	8,212
323,51	8,455
323,72	7,385
323,93	0,331
324,14	3,206
324,35	-0,052
324,56	1,642
324,77	3,645
324,99	3,844
325,20	-0,406
325,41	2,704
325,62	2,636
325,83	1,309
326,04	3,162
326,25	7,465
326,46	0,516
326,67	6,446
326,88	4,585
327,09	0,957
327,30	1,507
327,51	6,394
327,72	5,222
327,93	6,815
328,14	0,076
328,35	3,854
328,56	5,352
328,77	3,452
328,98	4,789
329,19	3,205
329,40	6,411
329,61	3,629
329,82	0,696
330,04	3,953
330,25	5,019
330,46	6,465
330,67	1,474
330,88	3,808
331,09	3,494
331,30	3,766
331,51	3,519
331,72	5,838
331,93	6,305
332,14	2,365
332,35	5,060
332,56	5,482
332,77	4,522
332,98	-0,658
333,19	1,471
333,40	7,403
333,61	4,761
333,82	5,049
334,03	3,682
334,24	5,968
334,45	5,147
334,66	6,909
334,87	2,677
335,08	1,536
335,29	-0,134
335,50	1,954
335,71	2,280
335,92	4,496
336,13	6,755
336,34	4,778
336,55	6,097
336,76	8,038
336,97	5,103
337,18	-0,397
337,39	1,488
337,60	5,016
337,81	3,803
338,02	2,436
338,23	4,168
338,44	4,595
338,65	4,529
338,86	3,859
339,07	1,676
339,28	5,788
339,49	2,375
339,70	2,069
339,91	5,961
340,11	8,111
340,32	1,546
340,53	1,982
340,74	-0,135
340,95	-0,056
341,16	5,040
341,37	1,249
341,58	1,494
341,79	3,185
342,00	1,628
342,21	2,674
342,42	2,992
342,63	5,040
342,84	0,791
343,05	4,473
343,26	6,242
343,47	5,053
343,68	0,648
343,89	3,316
344,10	5,818
344,31	8,618
344,52	3,035
344,73	2,410
344,94	1,830
345,14	4,659
345,35	6,340
345,56	4,971
345,77	4,432
345,98	2,962
346,19	4,841
346,40	3,494
346,61	4,596
346,82	3,885
347,03	5,151
347,24	7,683
347,45	1,623
347,66	6,595
347,87	3,311
348,08	6,877
348,28	-0,258
348,49	5,145
348,70	4,864
348,91	4,691
349,12	0,741
349,33	16,850
349,54	3,256
349,75	3,835
349,96	5,870
350,17	2,658
350,38	0,788
350,59	8,545
350,80	2,394
351,00	5,615
351,21	9,906
351,42	1,931
351,63	-1,015
351,84	3,965
352,05	7,883
352,26	2,661
352,47	4,525
352,68	7,063
352,89	6,051
353,09	4,162
353,30	0,872
353,51	2,126
353,72	6,126
353,93	7,363
354,14	0,615
354,35	4,506
354,56	7,411
354,77	4,146
354,98	-1,616
355,18	5,024
355,39	7,650
355,60	1,154
355,81	3,050
356,02	4,692
356,23	6,865
356,44	3,117
356,65	5,202
356,85	9,414
357,06	5,270
357,27	4,109
357,48	0,239
357,69	4,508
357,90	6,856
358,11	0,057
358,32	3,877
358,52	9,509
358,73	5,346
358,94	0,508
359,15	3,579
359,36	3,965
359,57	2,669
359,78	5,994
359,98	4,202
360,19	1,505
360,40	5,963
360,61	7,559
360,82	3,579
361,03	9,429
361,24	6,121
361,44	0,967
361,65	5,206
361,86	2,578
362,07	3,934
362,28	2,559
362,49	-0,488
362,70	5,716
362,90	6,414
363,11	2,520
363,32	1,848
363,53	3,899
363,74	7,075
363,95	4,692
364,15	5,450
364,36	7,860
364,57	6,539
364,78	4,249
364,99	3,867
365,20	5,925
365,40	5,958
365,61	1,242
365,82	7,685
366,03	5,830
366,24	4,192
366,45	6,207
366,65	4,352
366,86	4,873
367,07	4,876
367,28	2,023
367,49	2,879
367,69	9,622
367,90	3,085
368,11	4,582
368,32	1,541
368,53	6,330
368,73	5,335
368,94	3,839
369,15	1,462
369,36	6,316
369,57	3,734
369,78	1,716
369,98	6,750
370,19	8,467
370,40	4,994
370,61	4,132
370,82	1,488
371,02	8,296
371,23	6,921
371,44	3,945
371,65	5,931
371,85	4,134
372,06	6,186
372,27	2,647
372,48	5,083
372,69	5,754
372,89	5,440
373,10	2,063
373,31	4,789
373,52	3,924
373,73	9,909
373,93	3,481
374,14	2,912
374,35	4,181
374,56	6,935
374,76	6,514
374,97	1,251
375,18	5,813
375,39	3,619
375,60	8,447
375,80	6,404
376,01	5,021
376,22	4,053
376,43	5,689
376,63	4,591
376,84	6,157
377,05	5,654
377,26	-0,513
377,46	0,251
377,67	6,189
377,88	5,641
378,09	4,570
378,29	-0,847
378,50	4,892
378,71	7,491
378,92	3,228
379,12	0,913
379,33	3,602
379,54	4,233
379,75	8,845
379,95	2,733
380,16	7,225
380,37	7,664
380,58	5,775
380,78	8,003
380,99	2,062
381,20	1,384
381,41	3,846
381,61	5,743
381,82	4,235
382,03	6,047
382,24	6,151
382,44	7,189
382,65	4,471
382,86	6,363
383,06	2,485
383,27	4,823
383,48	4,047
383,69	6,509
383,89	5,616
384,10	3,544
384,31	3,848
384,51	7,114
384,72	7,108
384,93	3,353
385,14	3,474
385,34	6,736
385,55	3,108
385,76	3,271
385,96	4,535
386,17	5,874
386,38	5,685
386,59	8,205
386,79	4,820
387,00	7,737
387,21	7,175
387,41	8,076
387,62	2,014
387,83	10,502
388,03	5,947
388,24	2,364
388,45	6,323
388,66	5,547
388,86	5,838
389,07	3,112
389,28	9,567
389,48	4,876
389,69	4,868
389,90	1,474
390,10	8,306
390,31	8,081
390,52	-3,520
390,72	1,402
390,93	4,275
391,14	4,963
391,34	4,227
391,55	6,135
391,76	8,168
391,96	4,323
392,17	2,524
392,38	4,930
392,58	5,315
392,79	7,501
393,00	0,032
393,20	1,647
393,41	8,519
393,62	5,174
393,82	8,164
394,03	3,470
394,24	4,151
394,44	8,537
394,65	7,428
394,86	1,771
395,06	6,268
395,27	1,144
395,48	2,191
395,68	2,923
395,89	4,910
396,10	8,351
396,30	3,102
396,51	2,924
396,72	5,689
396,92	0,235
397,13	5,811
397,34	2,264
397,54	8,845
397,75	4,505
397,95	1,596
398,16	4,425
398,37	5,326
398,57	4,256
398,78	4,285
398,99	7,745
399,19	5,178
399,40	9,270
399,60	4,567
399,81	3,429
400,02	5,760
400,22	5,188
400,43	0,464
400,64	5,525
400,84	4,673
401,05	4,861
401,25	7,560
401,46	3,898
401,67	4,550
401,87	4,214
402,08	-0,001
402,29	4,120
402,49	7,832
402,70	6,619
402,90	1,641
403,11	3,797
403,32	4,541
403,52	1,484
403,73	6,888
403,93	6,444
404,14	7,796
404,35	6,140
404,55	0,829
404,76	1,849
404,96	7,990
405,17	8,354
405,38	9,081
405,58	2,024
405,79	5,182
405,99	6,467
406,20	2,530
406,40	-1,655
406,61	7,952
406,82	7,588
407,02	6,019
407,23	2,350
407,43	2,635
407,64	0,107
407,85	3,622
408,05	-1,652
408,26	12,172
408,46	7,283
408,67	3,169
408,87	4,204
409,08	4,261
409,29	8,803
409,49	4,161
409,70	4,432
409,90	7,383
410,11	2,843
410,31	9,765
410,52	1,638
410,72	4,716
410,93	5,240
411,14	5,429
411,34	-1,400
411,55	7,008
411,75	8,492
411,96	4,496
412,16	8,745
412,37	3,295
412,57	3,426
412,78	4,363
412,99	2,927
413,19	6,534
413,40	2,373
413,60	1,820
413,81	0,243
414,01	2,464
414,22	1,203
414,42	2,928
414,63	0,414
414,83	7,408
415,04	9,474
415,24	6,431
415,45	2,298
415,65	1,136
415,86	4,291
416,07	4,469
416,27	6,054
416,48	9,885
416,68	6,441
416,89	-0,331
417,09	-1,188
417,30	7,542
417,50	1,942
417,71	5,510
417,91	4,321
418,12	2,898
418,32	3,476
418,53	5,065
418,73	3,650
418,94	3,669
419,14	5,427
419,35	0,506
419,55	3,823
419,76	3,969
419,96	2,106
420,17	-0,139
420,37	2,338
420,58	5,775
420,78	2,581
420,99	4,369
421,19	4,740
421,40	5,575
421,60	8,488
421,81	2,617
422,01	3,628
422,22	4,049
422,42	5,042
422,63	3,601
422,83	5,613
423,04	5,275
423,24	11,152
423,45	0,107
423,65	6,104
423,86	14,740
424,06	8,524
424,27	3,727
424,47	0,260
424,67	3,087
424,88	5,363
425,08	6,211
425,29	9,672
425,49	2,052
425,70	-2,240
425,90	8,941
426,11	2,948
426,31	7,314
426,52	4,042
426,72	4,433
426,93	0,690
427,13	8,162
427,33	3,630
427,54	5,140
427,74	9,714
427,95	11,249
428,15	1,995
428,36	4,133
428,56	2,034
428,77	6,924
428,97	6,623
429,18	4,778
429,38	1,612
429,58	5,793
429,79	9,109
429,99	1,174
430,20	-0,968
430,40	6,341
430,61	2,106
430,81	2,181
431,01	8,937
431,22	10,312
431,42	9,771
431,63	2,928
431,83	3,826
432,04	5,370
432,24	6,319
432,44	1,978
432,65	-0,244
432,85	2,349
433,06	8,868
433,26	5,425
433,47	7,333
433,67	7,597
433,87	5,518
434,08	1,079
434,28	3,916
434,49	6,786
434,69	6,310
434,89	3,632
435,10	2,976
435,30	9,473
435,51	3,308
435,71	4,727
435,91	0,397
436,12	3,560
436,32	3,047
436,53	6,551
436,73	3,583
436,93	7,860
437,14	6,145
437,34	3,805
437,55	2,701
437,75	7,080
437,95	9,741
438,16	2,705
438,36	4,246
438,57	1,383
438,77	5,830
438,97	4,828
439,18	9,064
439,38	5,985
439,58	2,248
439,79	3,433
439,99	0,353
440,20	7,798
440,40	6,801
440,60	1,952
440,81	4,923
441,01	6,138
441,21	6,956
441,42	5,633
441,62	5,550
441,83	7,639
442,03	6,356
442,23	7,137
442,44	5,799
442,64	8,516
442,84	6,863
443,05	2,371
443,25	4,593
443,45	-3,067
443,66	4,784
443,86	2,317
444,06	3,180
444,27	5,105
444,47	2,653
444,67	0,603
444,88	6,349
445,08	7,008
445,28	4,347
445,49	2,055
445,69	2,547
445,90	8,903
446,10	5,714
446,30	4,400
446,51	3,058
446,71	6,787
446,91	11,976
447,12	10,205
447,32	2,342
447,52	7,225
447,72	6,337
447,93	5,317
448,13	-1,020
448,33	13,185
448,54	7,816
448,74	1,883
448,94	6,981
449,15	14,528
449,35	11,967
449,55	5,861
449,76	7,112
449,96	4,971
450,16	8,902
450,37	2,098
450,57	7,783
450,77	2,978
450,98	4,457
451,18	7,706
451,38	5,484
451,58	10,353
451,79	9,371
451,99	9,919
452,19	9,572
452,40	10,878
452,60	1,260
452,80	6,124
453,00	6,629
453,21	10,257
453,41	9,250
453,61	4,517
453,82	10,600
454,02	5,494
454,22	13,076
454,42	6,468
454,63	5,815
454,83	5,915
455,03	16,897
455,24	8,150
455,44	4,216
455,64	7,437
455,84	7,714
456,05	3,878
456,25	4,570
456,45	9,736
