Fichero De Datos De SpectraSuite
++++++++++++++++++++++++++++++++++++
Fecha: Wed Apr 22 13:26:05 CEST 2009
Usuario: evoflor
Presente Oscuro Del Espectro: Sí
La Referencia de Presente Del Espectro De: Sí
Muestreados de los componentes de Número de espectros: 1
Espectrómetros: USB4F02353
Tiempo de integración (usec): 500000 (USB4F02353)
Promedio de Espectros Hechos un: 5 (USB4F02353)
El Alisar Del Furgón: 0 (USB4F02353)
Párrafo de de Corregir del la del del de Eléctrica del obscuridad: Sí (USB4F02353)
Estrobo/Lámpara Permitido: No (USB4F02353)
Correct for Detector Non-linearity: No (USB4F02353)
Párrafo de de Corregir del la del del de Externa del luz: No (USB4F02353)
Procesado del espectro de Número de pixeles en: 3648
>>>>> Comienza Data<<<<< Espectral Procesado Del EL
177,79	232,957
178,00	232,957
178,22	232,957
178,44	1891,813
178,66	-442,321
178,88	399,528
179,09	-355,085
179,31	279,730
179,53	656,796
179,75	64,292
179,96	835,733
180,18	-411,831
180,40	609,697
180,62	407,546
180,83	-201,880
181,05	-2367,622
181,27	-92445,000
181,49	18,163
181,70	584,019
181,92	551,497
182,14	441,099
182,36	48,671
182,58	-123,450
182,79	947,076
183,01	-16,820
183,23	146,506
183,45	-76,754
183,66	-46,659
183,88	771,441
184,10	-2777,182
184,32	32,785
184,53	268,851
184,75	-318,327
184,97	10,617
185,18	-65,498
185,40	-959,351
185,62	98,923
185,84	15,164
186,05	73,998
186,27	-90,684
186,49	6809,423
186,71	18,196
186,92	108,519
187,14	-200,641
187,36	149,907
187,58	53,631
187,79	-84,415
188,01	451,692
188,23	-254,957
188,45	95,908
188,66	452,879
188,88	-2826,273
189,10	-2571,450
189,31	-37,961
189,53	-72,728
189,75	404,420
189,97	75,173
190,18	-182,639
190,40	485,559
190,62	-257,796
190,83	-351,449
191,05	228,529
191,27	228,129
191,49	186,498
191,70	-543,966
191,92	47,924
192,14	-37,340
192,35	782,347
192,57	4852,714
192,79	-89,197
193,01	87,571
193,22	151,225
193,44	-100,930
193,66	168,358
193,87	45,707
194,09	-11,474
194,31	257,450
194,53	740,874
194,74	30,073
194,96	69,879
195,18	168,769
195,39	-569,248
195,61	-146,739
195,83	-242,054
196,04	137,047
196,26	-62,035
196,48	-15,393
196,70	142,634
196,91	171,028
197,13	183,911
197,35	-71,762
197,56	667,941
197,78	1798,097
198,00	325,490
198,21	890,024
198,43	-1149,680
198,65	146,852
198,86	335,773
199,08	126,049
199,30	269,119
199,51	-239,560
199,73	134,444
199,95	366,943
200,16	608,250
200,38	300,068
200,60	62,546
200,81	303,951
201,03	292,785
201,25	-1374,450
201,46	168,337
201,68	112,578
201,90	2489,659
202,11	-291,011
202,33	159,506
202,55	199,312
202,76	-20,303
202,98	278,206
203,20	79,111
203,41	-211,816
203,63	161,064
203,85	-163545,000
204,06	141,404
204,28	-194,566
204,50	212,239
204,71	317,571
204,93	5,160
205,15	343,509
205,36	-128,576
205,58	194,712
205,80	-212,066
206,01	67,016
206,23	141,499
206,45	298,317
206,66	169,559
206,88	0,429
207,10	351,239
207,31	399,000
207,53	174,129
207,75	19,073
207,96	501,828
208,18	-242,227
208,39	59,570
208,61	3309,857
208,83	-447,382
209,04	267,334
209,26	-330,622
209,48	210,626
209,69	327,653
209,91	622,449
210,13	40,508
210,34	160,642
210,56	193,024
210,77	-2166,496
210,99	78,396
211,21	6126,176
211,42	-225,613
211,64	-40,876
211,86	313,331
212,07	237,637
212,29	177,615
212,50	143,236
212,72	414,404
212,94	196,799
213,15	149,350
213,37	160,234
213,58	-208,969
213,80	-4780,179
214,02	12002,647
214,23	314,863
214,45	323,754
214,67	-128,598
214,88	-174,312
215,10	-362,403
215,31	9,269
215,53	-80,352
215,75	231,209
215,96	1787,236
216,18	-535,986
216,39	224,958
216,61	494,640
216,83	629,665
217,04	1382,528
217,26	1,040
217,47	138,756
217,69	432,197
217,91	153,750
218,12	-118545,000
218,34	164,845
218,55	426,645
218,77	46,512
218,99	85,416
219,20	-196,985
219,42	220,495
219,63	-1,375
219,85	-134,459
220,06	-84,058
220,28	253,388
220,50	128,249
220,71	91,599
220,93	2168,774
221,14	-1230,450
221,36	64,159
221,58	-92,809
221,79	191,150
222,01	711,595
222,22	797,664
222,44	-488,258
222,65	140,653
222,87	168,147
223,09	137,807
223,30	105,339
223,52	256,141
223,73	76,588
223,95	-2,894
224,16	238,856
224,38	238,258
224,60	121,575
224,81	80,847
225,03	127,583
225,24	140,622
225,46	60,872
225,67	-2,298
225,89	-3,868
226,10	424,834
226,32	1164,360
226,54	6,415
226,75	53,377
226,97	142,596
227,18	239,029
227,40	-79,567
227,61	38,541
227,83	17,767
228,04	213,398
228,26	73,802
228,47	40,949
228,69	175,992
228,91	43,540
229,12	80,520
229,34	48,101
229,55	69,688
229,77	26,621
229,98	31,433
230,20	57,920
230,41	-28,163
230,63	103,069
230,84	0,618
231,06	25,600
231,27	27,848
231,49	52,078
231,71	22,014
231,92	37,922
232,14	4,160
232,35	66,424
232,57	50,094
232,78	5,589
233,00	51,904
233,21	55,149
233,43	14,431
233,64	-6,307
233,86	41,253
234,07	53,056
234,29	23,187
234,50	11,385
234,72	43,284
234,93	28,285
235,15	13,901
235,36	28,270
235,58	45,356
235,79	45,344
236,01	14,515
236,22	11,458
236,44	44,367
236,65	21,597
236,87	26,599
237,08	3,674
237,30	-3,768
237,51	28,100
237,73	0,371
237,94	15,852
238,16	13,938
238,37	26,599
238,59	20,395
238,80	11,700
239,02	7,025
239,23	18,946
239,45	-4,675
239,66	21,864
239,88	39,952
240,09	19,050
240,31	0,076
240,52	4,667
240,74	22,242
240,95	13,570
241,17	3,245
241,38	5,373
241,60	11,075
241,81	21,343
242,03	5,535
242,24	16,484
242,46	21,914
242,67	3,589
242,89	12,307
243,10	18,268
243,32	19,332
243,53	13,083
243,75	5,196
243,96	9,341
244,18	14,464
244,39	17,736
244,60	8,104
244,82	2,235
245,03	24,130
245,25	10,939
245,46	24,418
245,68	7,758
245,89	21,930
246,11	10,526
246,32	7,934
246,54	7,112
246,75	8,961
246,97	13,785
247,18	17,649
247,39	1,246
247,61	12,967
247,82	15,597
248,04	3,144
248,25	8,440
248,47	18,130
248,68	10,770
248,90	1,290
249,11	7,483
249,33	17,764
249,54	8,690
249,75	10,455
249,97	2,640
250,18	16,512
250,40	19,828
250,61	-5,042
250,83	3,619
251,04	0,387
251,25	10,781
251,47	-0,970
251,68	9,216
251,90	12,621
252,11	9,843
252,33	3,599
252,54	8,036
252,76	5,563
252,97	2,082
253,18	0,958
253,40	6,962
253,61	1,839
253,83	8,062
254,04	9,337
254,25	6,772
254,47	6,366
254,68	10,359
254,90	2,473
255,11	8,664
255,33	9,851
255,54	-0,248
255,75	2,851
255,97	7,561
256,18	4,787
256,40	10,112
256,61	9,473
256,82	-1,709
257,04	13,187
257,25	0,738
257,47	4,598
257,68	0,325
257,89	10,062
258,11	11,732
258,32	1,870
258,54	5,393
258,75	10,941
258,96	11,717
259,18	3,883
259,39	3,983
259,61	10,385
259,82	3,867
260,03	7,322
260,25	7,921
260,46	3,914
260,68	5,576
260,89	4,229
261,10	6,264
261,32	7,328
261,53	3,268
261,75	9,977
261,96	-0,469
262,17	11,990
262,39	12,345
262,60	1,738
262,81	-2,130
263,03	10,901
263,24	9,286
263,46	1,874
263,67	3,356
263,88	8,080
264,10	8,750
264,31	-0,219
264,52	6,273
264,74	8,390
264,95	5,832
265,17	5,481
265,38	4,482
265,59	10,189
265,81	10,913
266,02	3,374
266,23	4,669
266,45	10,818
266,66	14,740
266,87	5,126
267,09	5,200
267,30	8,938
267,52	8,595
267,73	3,997
267,94	5,306
268,16	6,034
268,37	6,217
268,58	8,710
268,80	8,564
269,01	7,335
269,22	10,012
269,44	10,717
269,65	6,005
269,86	0,826
270,08	9,807
270,29	2,223
270,50	9,711
270,72	6,992
270,93	3,052
271,14	4,446
271,36	2,411
271,57	5,042
271,78	5,648
272,00	6,160
272,21	6,569
272,42	6,163
272,64	7,115
272,85	2,886
273,06	5,774
273,28	10,431
273,49	7,597
273,70	5,969
273,92	7,864
274,13	9,183
274,34	5,730
274,56	5,392
274,77	1,165
274,98	6,782
275,20	5,373
275,41	4,564
275,62	8,124
275,84	4,797
276,05	14,478
276,26	4,574
276,47	2,713
276,69	6,004
276,90	7,866
277,11	5,208
277,33	4,534
277,54	9,771
277,75	9,919
277,97	1,980
278,18	2,270
278,39	8,775
278,61	2,295
278,82	7,491
279,03	5,527
279,24	6,380
279,46	6,307
279,67	7,898
279,88	3,860
280,10	10,166
280,31	1,157
280,52	6,976
280,73	1,441
280,95	8,268
281,16	8,886
281,37	5,419
281,59	8,039
281,80	9,677
282,01	7,526
282,22	5,287
282,44	4,010
282,65	14,332
282,86	7,850
283,08	6,107
283,29	4,270
283,50	4,690
283,71	5,860
283,93	6,018
284,14	7,475
284,35	5,223
284,56	7,394
284,78	3,478
284,99	4,005
285,20	11,166
285,42	6,130
285,63	3,556
285,84	2,945
286,05	7,232
286,27	6,630
286,48	2,431
286,69	2,506
286,90	4,960
287,12	6,213
287,33	1,577
287,54	2,305
287,75	9,378
287,97	5,159
288,18	6,256
288,39	2,278
288,60	7,092
288,82	5,123
289,03	2,296
289,24	4,857
289,45	6,472
289,67	4,733
289,88	2,406
290,09	5,009
290,30	7,577
290,52	2,349
290,73	4,676
290,94	1,559
291,15	5,244
291,37	4,244
291,58	5,024
291,79	3,675
292,00	8,839
292,21	6,907
292,43	5,180
292,64	1,312
292,85	3,956
293,06	9,117
293,28	2,937
293,49	3,186
293,70	7,931
293,91	3,637
294,12	6,656
294,34	5,139
294,55	4,637
294,76	5,784
294,97	8,981
295,19	0,985
295,40	4,375
295,61	5,946
295,82	0,534
296,03	4,330
296,25	4,689
296,46	1,936
296,67	0,749
296,88	0,271
297,09	7,413
297,31	3,371
297,52	5,976
297,73	1,809
297,94	8,065
298,15	7,125
298,37	3,248
298,58	3,023
298,79	6,801
299,00	3,673
299,21	0,926
299,43	2,497
299,64	7,138
299,85	6,655
300,06	2,069
300,27	2,751
300,49	8,556
300,70	8,070
300,91	4,699
301,12	2,702
301,33	8,687
301,54	4,014
301,76	7,975
301,97	1,788
302,18	3,874
302,39	7,412
302,60	12,799
302,82	5,961
303,03	9,003
303,24	4,850
303,45	4,464
303,66	4,159
303,87	3,477
304,09	5,303
304,30	5,024
304,51	3,042
304,72	4,484
304,93	7,277
305,14	4,355
305,36	2,604
305,57	3,318
305,78	6,001
305,99	3,707
306,20	5,530
306,41	2,605
306,62	4,769
306,84	4,537
307,05	2,808
307,26	4,302
307,47	7,973
307,68	5,168
307,89	6,098
308,11	7,778
308,32	5,293
308,53	2,871
308,74	0,855
308,95	1,747
309,16	8,310
309,37	7,354
309,59	3,813
309,80	5,312
310,01	6,313
310,22	7,396
310,43	4,188
310,64	7,465
310,85	6,271
311,06	4,568
311,28	4,943
311,49	4,036
311,70	6,014
311,91	1,292
312,12	2,931
312,33	7,307
312,54	7,128
312,75	5,352
312,97	3,654
313,18	6,311
313,39	3,377
313,60	3,855
313,81	4,792
314,02	5,822
314,23	6,781
314,44	2,620
314,65	5,118
314,87	5,309
315,08	3,214
315,29	5,258
315,50	8,003
315,71	6,470
315,92	11,578
316,13	3,975
316,34	5,522
316,55	7,569
316,77	2,011
316,98	2,503
317,19	1,661
317,40	4,815
317,61	9,276
317,82	2,917
318,03	2,479
318,24	3,450
318,45	9,047
318,66	4,659
318,87	1,483
319,09	7,359
319,30	6,790
319,51	5,252
319,72	4,797
319,93	5,030
320,14	8,139
320,35	6,837
320,56	1,209
320,77	3,804
320,98	11,288
321,19	3,930
321,40	3,460
321,62	7,665
321,83	3,113
322,04	4,995
322,25	6,140
322,46	10,512
322,67	10,572
322,88	5,515
323,09	3,786
323,30	7,314
323,51	8,291
323,72	6,446
323,93	0,758
324,14	4,130
324,35	0,018
324,56	1,939
324,77	2,440
324,99	6,141
325,20	0,398
325,41	5,879
325,62	3,961
325,83	2,099
326,04	4,678
326,25	6,119
326,46	2,390
326,67	3,721
326,88	7,177
327,09	4,137
327,30	3,511
327,51	4,387
327,72	5,767
327,93	5,568
328,14	0,224
328,35	4,427
328,56	7,247
328,77	4,708
328,98	6,481
329,19	5,805
329,40	6,969
329,61	3,472
329,82	1,542
330,04	6,898
330,25	3,803
330,46	3,580
330,67	2,761
330,88	5,002
331,09	3,858
331,30	2,008
331,51	4,519
331,72	6,511
331,93	9,254
332,14	3,310
332,35	7,165
332,56	6,035
332,77	6,409
332,98	1,516
333,19	2,305
333,40	2,822
333,61	3,044
333,82	8,238
334,03	6,371
334,24	8,579
334,45	5,060
334,66	6,463
334,87	2,432
335,08	-0,166
335,29	2,298
335,50	3,366
335,71	4,083
335,92	6,448
336,13	5,806
336,34	1,952
336,55	4,950
336,76	10,818
336,97	6,503
337,18	2,207
337,39	5,557
337,60	5,696
337,81	3,162
338,02	2,484
338,23	3,403
338,44	6,138
338,65	4,312
338,86	6,157
339,07	5,263
339,28	6,960
339,49	3,906
339,70	3,490
339,91	5,374
340,11	7,191
340,32	4,009
340,53	0,716
340,74	1,517
340,95	3,353
341,16	5,195
341,37	7,952
341,58	1,874
341,79	4,414
342,00	5,584
342,21	1,042
342,42	2,659
342,63	8,467
342,84	2,398
343,05	4,494
343,26	6,129
343,47	6,119
343,68	3,912
343,89	3,529
344,10	6,348
344,31	4,616
344,52	5,452
344,73	-0,036
344,94	5,790
345,14	6,913
345,35	6,490
345,56	3,777
345,77	5,267
345,98	6,577
346,19	6,628
346,40	5,062
346,61	4,673
346,82	5,117
347,03	6,214
347,24	7,816
347,45	1,896
347,66	9,559
347,87	4,640
348,08	8,342
348,28	2,986
348,49	8,333
348,70	6,847
348,91	5,600
349,12	0,077
349,33	18,153
349,54	3,487
349,75	6,748
349,96	6,164
350,17	5,767
350,38	2,564
350,59	7,437
350,80	3,115
351,00	6,732
351,21	9,899
351,42	4,850
351,63	4,443
351,84	4,412
352,05	7,219
352,26	3,831
352,47	2,970
352,68	7,511
352,89	7,237
353,09	8,988
353,30	1,556
353,51	2,478
353,72	9,376
353,93	8,554
354,14	0,762
354,35	5,370
354,56	9,826
354,77	4,658
354,98	2,474
355,18	5,575
355,39	10,902
355,60	6,372
355,81	8,880
356,02	6,610
356,23	5,409
356,44	2,870
356,65	5,195
356,85	10,811
357,06	9,492
357,27	7,412
357,48	0,921
357,69	4,973
357,90	4,482
358,11	2,807
358,32	4,437
358,52	5,304
358,73	5,014
358,94	4,151
359,15	4,564
359,36	6,828
359,57	5,180
359,78	7,021
359,98	3,984
360,19	2,431
360,40	7,601
360,61	9,305
360,82	3,082
361,03	10,279
361,24	7,771
361,44	1,655
361,65	6,077
361,86	5,549
362,07	5,556
362,28	4,398
362,49	1,786
362,70	7,279
362,90	8,706
363,11	1,238
363,32	4,953
363,53	5,007
363,74	6,512
363,95	5,664
364,15	5,885
364,36	6,304
364,57	3,079
364,78	3,082
364,99	3,771
365,20	9,088
365,40	7,937
365,61	5,400
365,82	7,470
366,03	5,582
366,24	6,528
366,45	2,835
366,65	3,962
366,86	7,028
367,07	6,223
367,28	1,257
367,49	4,267
367,69	8,997
367,90	5,216
368,11	4,690
368,32	1,753
368,53	6,915
368,73	6,442
368,94	3,412
369,15	2,583
369,36	10,830
369,57	6,956
369,78	3,113
369,98	5,356
370,19	11,741
370,40	5,508
370,61	5,119
370,82	5,858
371,02	9,252
371,23	8,651
371,44	5,168
371,65	3,769
371,85	9,731
372,06	4,054
372,27	3,286
372,48	6,810
372,69	3,745
372,89	7,029
373,10	5,086
373,31	4,684
373,52	5,064
373,73	9,592
373,93	3,871
374,14	3,374
374,35	6,005
374,56	8,206
374,76	3,774
374,97	5,563
375,18	5,711
375,39	6,922
375,60	4,841
375,80	4,376
376,01	5,444
376,22	4,324
376,43	3,775
376,63	4,432
376,84	3,649
377,05	8,313
377,26	2,070
377,46	2,857
377,67	4,032
377,88	7,544
378,09	5,329
378,29	2,495
378,50	7,169
378,71	5,239
378,92	-0,159
379,12	4,782
379,33	5,585
379,54	4,506
379,75	6,390
379,95	3,906
380,16	7,585
380,37	6,239
380,58	6,329
380,78	6,936
380,99	2,530
381,20	5,468
381,41	6,764
381,61	8,577
381,82	7,629
382,03	4,273
382,24	6,528
382,44	7,467
382,65	3,238
382,86	6,686
383,06	6,156
383,27	5,537
383,48	5,302
383,69	8,581
383,89	6,146
384,10	6,044
384,31	5,747
384,51	8,687
384,72	7,674
384,93	5,778
385,14	4,083
385,34	6,632
385,55	6,145
385,76	3,597
385,96	12,809
386,17	8,242
386,38	7,347
386,59	7,025
386,79	7,502
387,00	8,512
387,21	12,341
387,41	9,103
387,62	3,915
387,83	9,420
388,03	3,520
388,24	2,456
388,45	7,717
388,66	9,608
388,86	7,306
389,07	4,051
389,28	11,840
389,48	8,131
389,69	9,239
389,90	4,416
390,10	7,598
390,31	9,740
390,52	1,484
390,72	7,104
390,93	9,305
391,14	8,103
391,34	7,294
391,55	9,009
391,76	12,404
391,96	7,811
392,17	4,755
392,38	8,534
392,58	6,789
392,79	8,974
393,00	4,497
393,20	6,162
393,41	8,544
393,62	9,097
393,82	9,284
394,03	9,704
394,24	8,164
394,44	13,230
394,65	9,952
394,86	5,663
395,06	13,032
395,27	7,567
395,48	5,623
395,68	10,210
395,89	10,227
396,10	10,878
396,30	8,731
396,51	6,951
396,72	11,212
396,92	6,806
397,13	11,355
397,34	3,821
397,54	13,513
397,75	6,460
397,95	5,499
398,16	10,815
398,37	11,117
398,57	7,751
398,78	13,039
398,99	12,231
399,19	13,298
399,40	13,159
399,60	10,494
399,81	10,076
400,02	10,638
400,22	12,930
400,43	8,523
400,64	9,512
400,84	9,988
401,05	13,094
401,25	10,323
401,46	11,520
401,67	11,619
401,87	13,300
402,08	10,061
402,29	10,038
402,49	14,339
402,70	17,544
402,90	11,167
403,11	10,073
403,32	14,387
403,52	14,000
403,73	17,526
403,93	15,460
404,14	21,700
404,35	13,791
404,55	10,409
404,76	13,596
404,96	16,410
405,17	14,244
405,38	17,487
405,58	16,192
405,79	17,400
405,99	17,250
406,20	14,702
406,40	12,003
406,61	18,525
406,82	15,858
407,02	16,603
407,23	14,692
407,43	18,901
407,64	15,186
407,85	15,268
408,05	12,635
408,26	26,267
408,46	20,871
408,67	13,886
408,87	13,925
409,08	17,391
409,29	23,505
409,49	21,187
409,70	13,561
409,90	22,039
410,11	22,067
410,31	24,101
410,52	19,558
410,72	19,548
410,93	21,715
411,14	18,832
411,34	15,910
411,55	21,801
411,75	23,355
411,96	22,582
412,16	19,608
412,37	19,486
412,57	23,206
412,78	21,216
412,99	19,695
413,19	19,003
413,40	20,494
413,60	18,204
413,81	18,693
414,01	19,568
414,22	25,638
414,42	22,126
414,63	19,167
414,83	21,374
415,04	25,435
415,24	22,763
415,45	19,370
415,65	24,532
415,86	27,692
416,07	18,267
416,27	23,667
416,48	27,054
416,68	30,020
416,89	20,885
417,09	22,905
417,30	26,905
417,50	24,523
417,71	29,115
417,91	25,961
418,12	22,555
418,32	25,887
418,53	22,637
418,73	25,109
418,94	26,660
419,14	25,379
419,35	18,482
419,55	20,684
419,76	26,577
419,96	26,154
420,17	20,798
420,37	26,294
420,58	30,381
420,78	28,947
420,99	25,773
421,19	28,470
421,40	26,908
421,60	31,070
421,81	26,208
422,01	27,686
422,22	23,754
422,42	31,043
422,63	29,576
422,83	24,886
423,04	29,509
423,24	33,747
423,45	25,788
423,65	28,139
423,86	33,050
424,06	29,271
424,27	28,365
424,47	23,928
424,67	25,452
424,88	28,914
425,08	26,994
425,29	34,158
425,49	27,687
425,70	22,916
425,90	30,162
426,11	24,785
426,31	29,829
426,52	29,615
426,72	26,007
426,93	24,863
427,13	32,645
427,33	31,311
427,54	29,442
427,74	30,790
427,95	37,098
428,15	25,215
428,36	29,807
428,56	29,604
428,77	33,491
428,97	27,906
429,18	29,021
429,38	27,872
429,58	30,674
429,79	30,732
429,99	29,027
430,20	25,578
430,40	33,656
430,61	26,081
430,81	28,879
431,01	32,064
431,22	28,627
431,42	32,728
431,63	22,641
431,83	29,114
432,04	28,613
432,24	33,102
432,44	32,229
432,65	29,544
432,85	30,986
433,06	30,885
433,26	28,614
433,47	25,221
433,67	30,868
433,87	30,821
434,08	24,640
434,28	28,431
434,49	27,775
434,69	37,338
434,89	23,829
435,10	29,565
435,30	32,309
435,51	27,746
435,71	28,651
435,91	25,324
436,12	28,866
436,32	30,085
436,53	29,475
436,73	24,867
436,93	31,299
437,14	31,555
437,34	30,332
437,55	24,581
437,75	28,639
437,95	35,033
438,16	29,158
438,36	25,661
438,57	24,772
438,77	29,181
438,97	31,000
439,18	36,287
439,38	29,605
439,58	25,396
439,79	28,562
439,99	26,996
440,20	34,301
440,40	34,840
440,60	29,075
440,81	31,376
441,01	27,979
441,21	33,634
441,42	32,963
441,62	30,709
441,83	29,865
442,03	31,856
442,23	30,741
442,44	30,240
442,64	33,324
442,84	25,531
443,05	30,126
443,25	29,337
443,45	28,499
443,66	31,287
443,86	28,966
444,06	32,861
444,27	29,105
444,47	34,882
444,67	29,026
444,88	34,042
445,08	32,469
445,28	30,321
445,49	26,944
445,69	28,647
445,90	31,226
446,10	37,123
446,30	30,309
446,51	29,554
446,71	34,993
446,91	32,536
447,12	37,058
447,32	31,462
447,52	35,140
447,72	33,571
447,93	32,941
448,13	28,810
448,33	35,843
448,54	33,504
448,74	26,305
448,94	29,099
449,15	36,204
449,35	35,472
449,55	27,623
449,76	35,784
449,96	29,095
450,16	30,445
450,37	27,673
450,57	31,780
450,77	25,775
450,98	34,848
451,18	35,442
451,38	32,486
451,58	34,253
451,79	34,266
451,99	32,933
452,19	30,235
452,40	36,321
452,60	26,094
452,80	29,566
453,00	32,153
