Fichero De Datos De SpectraSuite
++++++++++++++++++++++++++++++++++++
Fecha: Wed Apr 22 13:27:52 CEST 2009
Usuario: evoflor
Presente Oscuro Del Espectro: Sí
La Referencia de Presente Del Espectro De: Sí
Muestreados de los componentes de Número de espectros: 1
Espectrómetros: USB4F02353
Tiempo de integración (usec): 500000 (USB4F02353)
Promedio de Espectros Hechos un: 5 (USB4F02353)
El Alisar Del Furgón: 0 (USB4F02353)
Párrafo de de Corregir del la del del de Eléctrica del obscuridad: Sí (USB4F02353)
Estrobo/Lámpara Permitido: No (USB4F02353)
Correct for Detector Non-linearity: No (USB4F02353)
Párrafo de de Corregir del la del del de Externa del luz: No (USB4F02353)
Procesado del espectro de Número de pixeles en: 3648
>>>>> Comienza Data<<<<< Espectral Procesado Del EL
177,79	312,747
178,00	312,747
178,22	312,747
178,44	1600,220
178,66	-338,515
178,88	257,394
179,09	-69,702
179,31	344,661
179,53	844,830
179,75	54,759
179,96	-45,000
180,18	-271,938
180,40	493,567
180,62	263,077
180,83	-207,521
181,05	-1747,317
181,27	-134280,000
181,49	-4,304
181,70	-33,923
181,92	476,041
182,14	854,458
182,36	75,373
182,58	295,200
182,79	884,732
183,01	-110,138
183,23	52,344
183,45	-277,477
183,66	-319,381
183,88	392,824
184,10	-3783,273
184,32	457,129
184,53	242,168
184,75	-216,064
184,97	24,618
185,18	-122,143
185,40	-1112,885
185,62	180,184
185,84	98,646
186,05	154,817
186,27	-205,524
186,49	3780,000
186,71	77,552
186,92	140,605
187,14	-229,798
187,36	163,001
187,58	115,701
187,79	-0,274
188,01	288,223
188,23	-330,341
188,45	-134,855
188,66	-143,839
188,88	-2768,727
189,10	-1909,800
189,31	-100,137
189,53	-37,445
189,75	477,000
189,97	627,231
190,18	-138,283
190,40	525,176
190,62	-170,479
190,83	-220,973
191,05	47,504
191,27	134,229
191,49	396,980
191,70	-684,519
191,92	-291,356
192,14	-99,272
192,35	551,936
192,57	5276,571
192,79	42,784
193,01	153,745
193,22	106,476
193,44	-204,573
193,66	112,714
193,87	262,484
194,09	-56,997
194,31	214,296
194,53	529,930
194,74	158,516
194,96	75,038
195,18	189,227
195,39	-275,937
195,61	-127,321
195,83	-299,739
196,04	136,138
196,26	-448,643
196,48	-11,446
196,70	410,099
196,91	-8,151
197,13	344,506
197,35	35,211
197,56	627,492
197,78	1579,701
198,00	492,168
198,21	219,320
198,43	-1424,302
198,65	169,903
198,86	240,216
199,08	136,328
199,30	279,109
199,51	-346,515
199,73	165,877
199,95	263,317
200,16	537,231
200,38	292,602
200,60	174,864
200,81	376,188
201,03	161,902
201,25	-2611,800
201,46	201,249
201,68	61,244
201,90	4238,182
202,11	-241,145
202,33	181,293
202,55	396,000
202,76	-111,419
202,98	198,188
203,20	3,462
203,41	-806,211
203,63	53,650
203,85	-192780,000
204,06	38,005
204,28	-134,892
204,50	242,517
204,71	334,240
204,93	-200,160
205,15	24,940
205,36	-286,004
205,58	141,996
205,80	-72,773
206,01	88,778
206,23	200,338
206,45	317,718
206,66	126,919
206,88	-65,345
207,10	223,364
207,31	415,073
207,53	139,371
207,75	10,981
207,96	1431,940
208,18	-359,693
208,39	47,683
208,61	3759,429
208,83	-562,610
209,04	407,024
209,26	-141,843
209,48	318,847
209,69	302,226
209,91	727,297
210,13	66,850
210,34	146,441
210,56	198,785
210,77	-1525,039
210,99	120,834
211,21	9116,471
211,42	-189,460
211,64	-24,508
211,86	213,879
212,07	307,197
212,29	316,985
212,50	145,611
212,72	156,462
212,94	209,790
213,15	156,183
213,37	160,618
213,58	-168,027
213,80	-1388,571
214,02	15945,882
214,23	302,518
214,45	590,754
214,67	700,244
214,88	-393,221
215,10	-342,570
215,31	-194,148
215,53	-69,136
215,75	299,270
215,96	1879,379
216,18	712,394
216,39	240,584
216,61	383,581
216,83	639,643
217,04	1640,225
217,26	-51,968
217,47	185,904
217,69	340,578
217,91	76,082
218,12	-80280,000
218,34	100,321
218,55	489,867
218,77	61,933
218,99	159,800
219,20	-178,316
219,42	378,933
219,63	107,079
219,85	-163,773
220,06	114,923
220,28	220,716
220,50	112,870
220,71	94,003
220,93	3909,057
221,14	-2107,800
221,36	-69,178
221,58	71,673
221,79	122,470
222,01	529,138
222,22	291,316
222,44	-291,236
222,65	137,235
222,87	762,797
223,09	156,754
223,30	68,966
223,52	119,590
223,73	154,111
223,95	-66,930
224,16	267,588
224,38	358,720
224,60	96,019
224,81	173,735
225,03	181,586
225,24	333,646
225,46	-4,186
225,67	-17,356
225,89	21,440
226,10	377,349
226,32	1304,640
226,54	43,565
226,75	77,615
226,97	149,915
227,18	211,942
227,40	-4,693
227,61	57,052
227,83	59,113
228,04	146,539
228,26	63,571
228,47	54,891
228,69	301,669
228,91	148,540
229,12	102,138
229,34	36,964
229,55	74,528
229,77	49,334
229,98	-10,588
230,20	45,546
230,41	-33,832
230,63	82,785
230,84	111,486
231,06	5,304
231,27	30,233
231,49	53,454
231,71	29,204
231,92	43,475
232,14	23,190
232,35	123,365
232,57	69,646
232,78	12,004
233,00	63,997
233,21	45,704
233,43	0,049
233,64	9,279
233,86	38,748
234,07	59,964
234,29	16,840
234,50	27,858
234,72	58,184
234,93	23,455
235,15	19,062
235,36	23,713
235,58	51,714
235,79	58,536
236,01	5,299
236,22	9,139
236,44	63,266
236,65	24,791
236,87	26,671
237,08	5,887
237,30	4,638
237,51	24,360
237,73	-6,668
237,94	16,852
238,16	24,961
238,37	7,991
238,59	15,352
238,80	17,630
239,02	18,695
239,23	30,077
239,45	12,236
239,66	20,167
239,88	31,132
240,09	23,345
240,31	8,987
240,52	12,952
240,74	21,646
240,95	10,273
241,17	17,054
241,38	11,592
241,60	13,493
241,81	32,508
242,03	3,541
242,24	14,993
242,46	22,619
242,67	10,770
242,89	18,011
243,10	23,601
243,32	27,037
243,53	20,860
243,75	8,465
243,96	13,760
244,18	13,917
244,39	15,570
244,60	11,079
244,82	8,689
245,03	24,720
245,25	13,786
245,46	25,615
245,68	10,997
245,89	25,210
246,11	24,528
246,32	17,708
246,54	12,171
246,75	18,218
246,97	13,872
247,18	21,671
247,39	6,772
247,61	16,438
247,82	17,588
248,04	8,477
248,25	8,749
248,47	18,215
248,68	17,435
248,90	4,825
249,11	8,195
249,33	19,391
249,54	12,903
249,75	4,858
249,97	12,013
250,18	18,755
250,40	20,548
250,61	0,183
250,83	7,730
251,04	10,444
251,25	15,443
251,47	7,556
251,68	13,302
251,90	15,035
252,11	16,979
252,33	3,815
252,54	13,159
252,76	10,240
252,97	6,677
253,18	5,695
253,40	10,205
253,61	12,077
253,83	12,817
254,04	11,256
254,25	9,100
254,47	8,893
254,68	13,337
254,90	6,933
255,11	13,343
255,33	10,238
255,54	8,785
255,75	6,184
255,97	9,974
256,18	8,023
256,40	11,469
256,61	14,430
256,82	3,172
257,04	19,313
257,25	6,680
257,47	7,251
257,68	8,672
257,89	14,599
258,11	13,946
258,32	12,342
258,54	8,597
258,75	15,595
258,96	13,836
259,18	9,535
259,39	5,121
259,61	13,454
259,82	9,433
260,03	13,088
260,25	9,074
260,46	12,776
260,68	8,349
260,89	8,528
261,10	7,984
261,32	7,347
261,53	8,790
261,75	11,395
261,96	4,042
262,17	17,018
262,39	18,049
262,60	7,128
262,81	3,455
263,03	14,983
263,24	9,840
263,46	4,764
263,67	3,986
263,88	7,201
264,10	10,967
264,31	7,806
264,52	9,433
264,74	13,678
264,95	6,988
265,17	14,272
265,38	8,478
265,59	13,812
265,81	15,069
266,02	5,424
266,23	5,762
266,45	20,317
266,66	12,329
266,87	9,986
267,09	8,600
267,30	13,953
267,52	14,909
267,73	7,645
267,94	8,632
268,16	14,560
268,37	9,532
268,58	6,241
268,80	6,558
269,01	9,840
269,22	10,213
269,44	12,226
269,65	10,468
269,86	5,407
270,08	8,709
270,29	5,572
270,50	8,024
270,72	12,447
270,93	10,443
271,14	5,048
271,36	5,694
271,57	13,734
271,78	13,588
272,00	9,546
272,21	10,295
272,42	13,588
272,64	10,207
272,85	6,642
273,06	6,700
273,28	11,801
273,49	11,382
273,70	10,820
273,92	9,498
274,13	13,239
274,34	9,624
274,56	8,528
274,77	5,312
274,98	9,932
275,20	10,204
275,41	9,636
275,62	8,141
275,84	7,235
276,05	12,912
276,26	5,790
276,47	2,977
276,69	16,104
276,90	12,445
277,11	7,346
277,33	6,320
277,54	10,275
277,75	10,313
277,97	3,540
278,18	5,966
278,39	15,117
278,61	5,838
278,82	9,724
279,03	7,684
279,24	9,133
279,46	6,656
279,67	11,162
279,88	5,424
280,10	14,378
280,31	4,216
280,52	7,845
280,73	5,214
280,95	10,094
281,16	11,030
281,37	7,286
281,59	11,901
281,80	15,142
282,01	8,714
282,22	6,735
282,44	3,519
282,65	16,025
282,86	10,977
283,08	8,099
283,29	8,286
283,50	7,630
283,71	10,306
283,93	6,358
284,14	9,867
284,35	6,467
284,56	9,587
284,78	6,337
284,99	8,998
285,20	12,015
285,42	8,423
285,63	6,296
285,84	3,729
286,05	6,547
286,27	7,588
286,48	5,152
286,69	5,940
286,90	8,344
287,12	6,715
287,33	8,127
287,54	6,570
287,75	9,540
287,97	9,290
288,18	6,047
288,39	3,595
288,60	7,650
288,82	8,858
289,03	6,917
289,24	8,728
289,45	12,417
289,67	9,515
289,88	6,453
290,09	9,813
290,30	9,404
290,52	6,831
290,73	10,019
290,94	1,599
291,15	6,685
291,37	9,720
291,58	8,687
291,79	4,996
292,00	10,051
292,21	10,247
292,43	8,085
292,64	6,025
292,85	6,808
293,06	8,231
293,28	5,184
293,49	5,442
293,70	11,423
293,91	5,821
294,12	6,565
294,34	8,260
294,55	8,233
294,76	7,823
294,97	10,608
295,19	6,608
295,40	7,086
295,61	9,316
295,82	1,448
296,03	8,653
296,25	9,602
296,46	3,277
296,67	4,918
296,88	2,890
297,09	10,300
297,31	5,847
297,52	9,144
297,73	6,927
297,94	12,321
298,15	10,666
298,37	5,372
298,58	12,149
298,79	9,724
299,00	4,896
299,21	7,773
299,43	3,190
299,64	12,083
299,85	8,504
300,06	4,722
300,27	4,959
300,49	13,667
300,70	9,092
300,91	6,108
301,12	6,667
301,33	11,556
301,54	6,533
301,76	7,694
301,97	5,757
302,18	8,214
302,39	8,453
302,60	17,621
302,82	6,783
303,03	8,846
303,24	8,807
303,45	9,380
303,66	7,738
303,87	7,773
304,09	12,371
304,30	5,133
304,51	6,488
304,72	6,158
304,93	12,302
305,14	5,462
305,36	3,323
305,57	7,406
305,78	9,309
305,99	7,126
306,20	7,005
306,41	6,693
306,62	5,329
306,84	2,909
307,05	4,631
307,26	7,557
307,47	10,317
307,68	5,520
307,89	6,623
308,11	7,836
308,32	8,657
308,53	7,567
308,74	5,544
308,95	8,312
309,16	8,347
309,37	10,561
309,59	6,181
309,80	8,268
310,01	6,517
310,22	8,292
310,43	4,600
310,64	6,546
310,85	8,667
311,06	6,237
311,28	6,620
311,49	7,291
311,70	11,828
311,91	4,429
312,12	6,473
312,33	9,231
312,54	7,068
312,75	8,525
312,97	5,298
313,18	9,761
313,39	4,338
313,60	4,754
313,81	7,373
314,02	9,326
314,23	10,498
314,44	2,415
314,65	6,169
314,87	5,497
315,08	5,113
315,29	8,539
315,50	8,238
315,71	11,063
315,92	11,224
316,13	6,967
316,34	7,224
316,55	10,220
316,77	3,032
316,98	5,249
317,19	6,820
317,40	7,519
317,61	9,764
317,82	6,787
318,03	5,634
318,24	7,771
318,45	10,148
318,66	6,153
318,87	4,818
319,09	9,061
319,30	10,226
319,51	9,197
319,72	9,044
319,93	9,531
320,14	9,596
320,35	9,670
320,56	5,641
320,77	6,467
320,98	12,801
321,19	5,718
321,40	7,664
321,62	9,466
321,83	6,538
322,04	6,312
322,25	6,449
322,46	12,406
322,67	9,524
322,88	6,231
323,09	6,449
323,30	10,265
323,51	11,491
323,72	8,147
323,93	4,035
324,14	6,186
324,35	2,943
324,56	4,808
324,77	6,171
324,99	5,344
325,20	3,345
325,41	9,782
325,62	5,812
325,83	6,695
326,04	4,428
326,25	7,734
326,46	3,811
326,67	7,834
326,88	9,060
327,09	6,927
327,30	4,456
327,51	9,720
327,72	11,050
327,93	10,400
328,14	4,688
328,35	6,682
328,56	8,860
328,77	6,447
328,98	6,366
329,19	7,668
329,40	9,931
329,61	5,299
329,82	2,122
330,04	10,180
330,25	4,736
330,46	8,619
330,67	5,982
330,88	7,363
331,09	6,942
331,30	7,008
331,51	6,755
331,72	9,539
331,93	9,794
332,14	7,282
332,35	7,101
332,56	7,591
332,77	10,129
332,98	4,550
333,19	5,892
333,40	7,330
333,61	6,346
333,82	8,354
334,03	8,039
334,24	10,922
334,45	7,459
334,66	8,002
334,87	8,516
335,08	7,054
335,29	5,280
335,50	5,253
335,71	3,099
335,92	11,275
336,13	8,542
336,34	5,509
336,55	9,550
336,76	11,521
336,97	7,349
337,18	4,619
337,39	5,465
337,60	7,875
337,81	6,814
338,02	5,729
338,23	6,503
338,44	7,831
338,65	6,379
338,86	7,752
339,07	5,888
339,28	7,418
339,49	7,750
339,70	2,916
339,91	6,231
340,11	9,568
340,32	6,166
340,53	5,016
340,74	2,225
340,95	2,929
341,16	9,601
341,37	3,374
341,58	1,777
341,79	5,416
342,00	7,688
342,21	5,933
342,42	6,237
342,63	9,842
342,84	5,016
343,05	9,306
343,26	7,796
343,47	8,956
343,68	5,618
343,89	5,187
344,10	6,415
344,31	9,390
344,52	7,527
344,73	4,884
344,94	8,577
345,14	8,332
345,35	8,295
345,56	6,718
345,77	6,992
345,98	7,934
346,19	4,962
346,40	6,251
346,61	7,863
346,82	7,159
347,03	6,368
347,24	9,260
347,45	6,475
347,66	13,088
347,87	6,688
348,08	10,281
348,28	3,313
348,49	8,092
348,70	10,343
348,91	8,017
349,12	2,430
349,33	19,768
349,54	8,282
349,75	7,106
349,96	6,286
350,17	6,810
350,38	6,437
350,59	6,379
350,80	6,283
351,00	8,733
351,21	9,941
351,42	6,029
351,63	2,372
351,84	8,847
352,05	9,603
352,26	7,487
352,47	5,787
352,68	7,952
352,89	8,560
353,09	8,944
353,30	5,303
353,51	6,777
353,72	12,648
353,93	9,942
354,14	3,673
354,35	6,166
354,56	10,365
354,77	8,675
354,98	4,432
355,18	7,294
355,39	13,353
355,60	6,386
355,81	6,694
356,02	6,264
356,23	6,843
356,44	3,754
356,65	8,619
356,85	12,872
357,06	10,697
357,27	9,367
357,48	2,525
357,69	9,997
357,90	8,866
358,11	2,908
358,32	6,211
358,52	9,457
358,73	8,189
358,94	6,888
359,15	8,249
359,36	8,895
359,57	7,561
359,78	7,858
359,98	7,061
360,19	4,223
360,40	9,495
360,61	10,440
360,82	5,820
361,03	12,185
361,24	10,358
361,44	7,266
361,65	8,756
361,86	7,160
362,07	7,968
362,28	6,615
362,49	3,474
362,70	8,952
362,90	9,231
363,11	6,087
363,32	4,351
363,53	9,860
363,74	15,094
363,95	8,590
364,15	9,670
364,36	10,556
364,57	8,313
364,78	5,771
364,99	5,895
365,20	8,451
365,40	12,547
365,61	5,327
365,82	10,778
366,03	7,761
366,24	7,351
366,45	6,737
366,65	8,359
366,86	7,073
367,07	7,983
367,28	3,969
367,49	7,577
367,69	14,456
367,90	6,972
368,11	7,769
368,32	5,198
368,53	10,923
368,73	8,391
368,94	5,647
369,15	6,683
369,36	13,000
369,57	9,408
369,78	3,909
369,98	8,385
370,19	13,426
370,40	4,358
370,61	6,253
370,82	5,903
371,02	13,866
371,23	12,227
371,44	6,477
371,65	7,156
371,85	10,675
372,06	5,225
372,27	7,180
372,48	5,364
372,69	9,203
372,89	7,990
373,10	6,779
373,31	6,285
373,52	10,000
373,73	8,864
373,93	8,864
374,14	8,181
374,35	10,995
374,56	9,833
374,76	5,680
374,97	7,487
375,18	8,555
375,39	7,092
375,60	11,302
375,80	6,878
376,01	6,692
376,22	5,732
376,43	7,990
376,63	7,062
376,84	7,384
377,05	8,796
377,26	4,356
377,46	5,077
377,67	9,372
377,88	7,676
378,09	5,006
378,29	5,308
378,50	8,458
378,71	12,108
378,92	5,709
379,12	5,742
379,33	6,170
379,54	7,914
379,75	10,107
379,95	5,847
380,16	11,152
380,37	11,279
380,58	8,436
380,78	10,377
380,99	9,147
381,20	9,640
381,41	8,337
381,61	8,314
381,82	7,709
382,03	8,899
382,24	10,036
382,44	7,894
382,65	9,807
382,86	7,763
383,06	4,813
383,27	3,945
383,48	8,653
383,69	9,235
383,89	10,905
384,10	7,532
384,31	8,823
384,51	10,679
384,72	10,781
384,93	8,524
385,14	10,432
385,34	8,188
385,55	8,616
385,76	5,716
385,96	11,726
386,17	6,343
386,38	10,351
386,59	12,999
386,79	7,911
387,00	15,613
387,21	9,353
387,41	7,450
387,62	11,464
387,83	16,719
388,03	11,379
388,24	4,537
388,45	9,197
388,66	12,616
388,86	11,081
389,07	6,708
389,28	14,580
389,48	12,183
389,69	6,216
389,90	7,283
390,10	11,242
390,31	15,447
390,52	6,479
390,72	6,630
390,93	10,382
391,14	7,826
391,34	10,833
391,55	9,148
391,76	14,334
391,96	10,770
392,17	8,958
392,38	10,716
392,58	12,507
392,79	9,183
393,00	8,518
393,20	7,955
393,41	9,152
393,62	9,637
393,82	14,080
394,03	15,261
394,24	9,618
394,44	13,627
394,65	12,630
394,86	10,287
395,06	14,758
395,27	11,859
395,48	7,157
395,68	14,692
395,89	13,336
396,10	16,582
396,30	8,715
396,51	8,749
396,72	11,641
396,92	10,972
397,13	11,046
397,34	8,834
397,54	12,352
397,75	8,375
397,95	7,015
398,16	14,288
398,37	11,100
398,57	10,681
398,78	12,166
398,99	10,570
399,19	13,150
399,40	15,862
399,60	9,077
399,81	13,215
400,02	17,460
400,22	14,313
400,43	11,362
400,64	14,521
400,84	17,079
401,05	13,938
401,25	14,000
401,46	16,962
401,67	16,552
401,87	15,938
402,08	9,646
402,29	11,451
402,49	16,145
402,70	18,329
402,90	11,633
403,11	13,474
403,32	14,503
403,52	14,177
403,73	17,113
403,93	13,027
404,14	19,321
404,35	17,175
404,55	8,592
404,76	16,423
404,96	16,697
405,17	16,095
405,38	21,310
405,58	13,555
405,79	15,190
405,99	19,243
406,20	16,258
406,40	14,152
406,61	17,297
406,82	13,987
407,02	18,001
407,23	16,604
407,43	19,516
407,64	16,289
407,85	14,088
408,05	14,725
408,26	26,525
408,46	23,124
408,67	12,081
408,87	15,938
409,08	17,796
409,29	22,557
409,49	19,980
409,70	21,463
409,90	19,966
410,11	20,342
410,31	21,472
410,52	20,622
410,72	19,420
410,93	22,594
411,14	21,218
411,34	14,565
411,55	21,954
411,75	23,774
411,96	21,850
412,16	20,356
412,37	22,764
412,57	22,093
412,78	18,417
412,99	15,336
413,19	21,063
413,40	19,360
413,60	16,500
413,81	17,803
414,01	23,740
414,22	25,911
414,42	21,625
414,63	18,506
414,83	25,570
415,04	26,090
415,24	22,707
415,45	20,738
415,65	23,082
415,86	21,195
416,07	22,290
416,27	25,353
416,48	28,067
416,68	28,498
416,89	20,206
417,09	22,960
417,30	27,605
417,50	25,421
417,71	22,709
417,91	21,730
418,12	20,938
418,32	23,188
418,53	25,917
418,73	24,214
418,94	22,063
419,14	24,451
419,35	20,421
419,55	24,204
419,76	29,501
419,96	26,316
420,17	21,747
420,37	25,035
420,58	28,416
420,78	25,036
420,99	22,831
421,19	26,440
421,40	27,787
421,60	29,900
421,81	23,808
422,01	26,506
422,22	27,571
422,42	27,242
422,63	27,519
422,83	24,241
423,04	30,836
423,24	29,550
423,45	21,928
423,65	30,639
423,86	34,427
424,06	29,952
424,27	25,251
424,47	25,437
424,67	24,415
424,88	27,047
425,08	26,482
425,29	29,872
425,49	26,138
425,70	17,762
425,90	28,871
426,11	29,260
426,31	28,945
426,52	28,416
426,72	24,768
426,93	24,917
427,13	30,447
427,33	26,649
427,54	30,823
427,74	28,238
427,95	31,611
428,15	23,476
428,36	25,588
428,56	29,292
428,77	28,967
428,97	25,726
429,18	29,110
429,38	27,328
429,58	32,199
429,79	30,202
429,99	21,473
430,20	20,070
430,40	30,450
430,61	28,206
430,81	26,541
431,01	29,640
431,22	31,118
431,42	29,910
431,63	25,587
431,83	27,600
432,04	30,397
432,24	32,803
432,44	26,095
432,65	26,196
432,85	26,302
433,06	31,033
433,26	26,941
433,47	25,814
433,67	25,281
433,87	27,343
434,08	25,081
434,28	24,066
434,49	28,761
434,69	31,563
434,89	25,183
435,10	26,934
435,30	29,988
435,51	24,582
435,71	27,283
435,91	22,252
436,12	28,496
436,32	25,545
436,53	26,745
436,73	28,113
436,93	30,801
437,14	26,594
437,34	28,913
437,55	26,205
437,75	28,980
437,95	34,869
438,16	26,931
438,36	29,256
438,57	26,976
438,77	26,544
438,97	27,714
439,18	33,520
439,38	29,976
439,58	26,631
439,79	32,489
439,99	24,848
440,20	36,186
440,40	32,238
440,60	31,081
440,81	29,851
441,01	28,719
441,21	29,013
441,42	27,744
441,62	31,282
441,83	27,792
442,03	27,584
442,23	30,722
442,44	27,101
442,64	29,854
442,84	24,433
443,05	29,328
443,25	26,268
443,45	24,861
443,66	28,859
443,86	25,651
444,06	27,577
444,27	27,278
444,47	28,706
444,67	25,793
444,88	30,012
445,08	30,644
445,28	30,373
445,49	25,093
445,69	25,453
445,90	31,869
446,10	34,009
446,30	29,767
446,51	27,650
446,71	31,446
446,91	32,189
447,12	31,107
447,32	24,918
447,52	32,725
447,72	29,549
447,93	31,593
448,13	22,377
448,33	33,936
448,54	34,568
448,74	25,090
448,94	26,610
449,15	37,595
449,35	36,143
449,55	30,106
449,76	34,243
449,96	31,380
450,16	30,464
450,37	26,702
450,57	26,873
450,77	24,681
450,98	34,137
