Fichero De Datos De SpectraSuite
++++++++++++++++++++++++++++++++++++
Fecha: Wed Apr 22 11:38:25 CEST 2009
Usuario: evoflor
Presente Oscuro Del Espectro: Sí
La Referencia de Presente Del Espectro De: Sí
Muestreados de los componentes de Número de espectros: 1
Espectrómetros: USB4F02353
Tiempo de integración (usec): 500000 (USB4F02353)
Promedio de Espectros Hechos un: 5 (USB4F02353)
El Alisar Del Furgón: 0 (USB4F02353)
Párrafo de de Corregir del la del del de Eléctrica del obscuridad: Sí (USB4F02353)
Estrobo/Lámpara Permitido: No (USB4F02353)
Correct for Detector Non-linearity: No (USB4F02353)
Párrafo de de Corregir del la del del de Externa del luz: No (USB4F02353)
Procesado del espectro de Número de pixeles en: 3648
>>>>> Comienza Data<<<<< Espectral Procesado Del EL
177,79	314,384
178,00	314,384
178,22	314,384
178,44	1326,703
178,66	-210,424
178,88	144,072
179,09	-436,043
179,31	196,991
179,53	668,328
179,75	270,693
179,96	472,155
180,18	-102,062
180,40	352,134
180,62	496,207
180,83	-34,008
181,05	-1798,415
181,27	-86270,000
181,49	-48,630
181,70	75,654
181,92	579,543
182,14	769,488
182,36	155,124
182,58	226,300
182,79	1200,759
183,01	-49,458
183,23	158,709
183,45	-168,523
183,66	-110,929
183,88	131,588
184,10	-3712,182
184,32	113,292
184,53	282,038
184,75	-110,859
184,97	48,872
185,18	-182,462
185,40	-509,952
185,62	86,194
185,84	127,445
186,05	108,537
186,27	-201,813
186,49	4218,077
186,71	21,256
186,92	72,757
187,14	-252,695
187,36	129,365
187,58	99,968
187,79	9,772
188,01	240,448
188,23	-288,551
188,45	91,367
188,66	328,884
188,88	-1764,909
189,10	-2158,700
189,31	-193,294
189,53	-39,653
189,75	322,886
189,97	193,346
190,18	-220,730
190,40	486,294
190,62	-278,514
190,83	-262,393
191,05	310,286
191,27	346,771
191,49	503,144
191,70	-856,106
191,92	-708,220
192,14	20,897
192,35	627,507
192,57	3802,000
192,79	124,989
193,01	181,174
193,22	72,510
193,44	-154,898
193,66	72,985
193,87	26,702
194,09	-40,011
194,31	156,414
194,53	659,930
194,74	76,726
194,96	0,985
195,18	159,112
195,39	-315,488
195,61	-114,651
195,83	-144,500
196,04	152,111
196,26	-239,045
196,48	-45,848
196,70	198,350
196,91	4,849
197,13	-11,722
197,35	-129,224
197,56	673,901
197,78	1651,269
198,00	534,056
198,21	156,650
198,43	-695,174
198,65	214,865
198,86	213,201
199,08	120,557
199,30	238,401
199,51	-278,078
199,73	265,578
199,95	189,035
200,16	795,654
200,38	102,662
200,60	160,300
200,81	427,559
201,03	-27,255
201,25	-1465,700
201,46	194,800
201,68	94,034
201,90	3085,682
202,11	-332,710
202,33	264,758
202,55	-1,625
202,76	-22,506
202,98	197,108
203,20	39,567
203,41	-155,632
203,63	15,410
203,85	-155570,000
204,06	5,963
204,28	-95,108
204,50	163,190
204,71	284,399
204,93	-224,240
205,15	143,283
205,36	-163,231
205,58	315,873
205,80	-91,538
206,01	25,866
206,23	156,824
206,45	296,711
206,66	73,287
206,88	51,647
207,10	204,250
207,31	316,914
207,53	187,343
207,75	63,361
207,96	1013,209
208,18	-345,341
208,39	112,351
208,61	5087,714
208,83	-463,736
209,04	352,398
209,26	-148,710
209,48	150,040
209,69	152,210
209,91	622,872
210,13	103,981
210,34	6,223
210,56	153,097
210,77	-1721,024
210,99	186,663
211,21	6874,706
211,42	-207,401
211,64	-19,544
211,86	285,548
212,07	142,876
212,29	186,829
212,50	158,455
212,72	86,038
212,94	68,450
213,15	133,689
213,37	115,066
213,58	-49,601
213,80	-1313,214
214,02	9257,059
214,23	297,026
214,45	530,721
214,67	-898,415
214,88	-144,530
215,10	-272,306
215,31	21,332
215,53	-123,023
215,75	179,774
215,96	1899,814
216,18	-77,887
216,39	265,188
216,61	286,616
216,83	573,973
217,04	1272,697
217,26	50,597
217,47	149,656
217,69	280,167
217,91	-36,778
218,12	-15170,000
218,34	174,278
218,55	393,554
218,77	69,096
218,99	127,926
219,20	-104,505
219,42	241,265
219,63	-91,834
219,85	-100,929
220,06	-256,654
220,28	159,350
220,50	88,584
220,71	66,158
220,93	3240,943
221,14	-2176,700
221,36	46,711
221,58	-22,673
221,79	237,215
222,01	953,190
222,22	834,013
222,44	463,708
222,65	68,866
222,87	68,322
223,09	150,946
223,30	98,410
223,52	166,702
223,73	204,980
223,95	9,958
224,16	148,186
224,38	317,464
224,60	25,793
224,81	51,903
225,03	51,399
225,24	260,717
225,46	79,020
225,67	1,299
225,89	25,746
226,10	476,717
226,32	862,960
226,54	63,917
226,75	-69,300
226,97	116,551
227,18	173,321
227,40	62,017
227,61	60,178
227,83	19,004
228,04	138,066
228,26	23,156
228,47	54,781
228,69	171,790
228,91	109,801
229,12	105,143
229,34	47,228
229,55	64,313
229,77	18,273
229,98	-0,556
230,20	68,351
230,41	15,996
230,63	115,781
230,84	36,117
231,06	61,415
231,27	-16,236
231,49	22,049
231,71	49,442
231,92	21,416
232,14	16,387
232,35	67,380
232,57	51,181
232,78	23,547
233,00	69,290
233,21	59,133
233,43	26,016
233,64	18,922
233,86	42,080
234,07	48,756
234,29	17,113
234,50	11,885
234,72	42,213
234,93	2,230
235,15	28,422
235,36	34,420
235,58	29,332
235,79	51,829
236,01	19,803
236,22	5,249
236,44	35,236
236,65	31,293
236,87	14,862
237,08	5,980
237,30	5,993
237,51	31,779
237,73	2,303
237,94	2,251
238,16	24,479
238,37	12,385
238,59	13,827
238,80	23,965
239,02	9,530
239,23	13,731
239,45	-6,856
239,66	20,645
239,88	29,342
240,09	24,163
240,31	2,226
240,52	10,715
240,74	11,661
240,95	2,286
241,17	5,116
241,38	8,280
241,60	17,351
241,81	24,158
242,03	6,660
242,24	10,215
242,46	25,716
242,67	6,740
242,89	14,921
243,10	19,004
243,32	18,996
243,53	22,443
243,75	7,191
243,96	11,506
244,18	10,107
244,39	15,178
244,60	9,444
244,82	7,504
245,03	21,634
245,25	12,824
245,46	17,514
245,68	0,127
245,89	21,657
246,11	11,005
246,32	12,781
246,54	4,065
246,75	6,369
246,97	15,139
247,18	19,775
247,39	4,476
247,61	11,405
247,82	6,652
248,04	5,974
248,25	8,617
248,47	11,456
248,68	11,774
248,90	0,526
249,11	11,450
249,33	14,670
249,54	10,763
249,75	12,526
249,97	4,400
250,18	14,460
250,40	14,663
250,61	-2,978
250,83	4,231
251,04	2,182
251,25	14,333
251,47	-3,026
251,68	14,919
251,90	12,725
252,11	9,896
252,33	-0,248
252,54	6,919
252,76	8,012
252,97	-4,340
253,18	-1,465
253,40	7,115
253,61	4,601
253,83	15,354
254,04	8,395
254,25	7,004
254,47	1,679
254,68	10,188
254,90	10,291
255,11	4,182
255,33	9,218
255,54	8,534
255,75	8,406
255,97	8,586
256,18	4,221
256,40	6,390
256,61	9,007
256,82	2,056
257,04	10,054
257,25	2,671
257,47	6,332
257,68	2,980
257,89	10,806
258,11	8,731
258,32	6,265
258,54	8,289
258,75	10,020
258,96	12,958
259,18	4,905
259,39	4,633
259,61	9,180
259,82	6,375
260,03	4,751
260,25	4,891
260,46	3,682
260,68	10,920
260,89	1,234
261,10	5,541
261,32	8,059
261,53	4,366
261,75	8,145
261,96	1,117
262,17	10,558
262,39	12,598
262,60	5,161
262,81	1,240
263,03	10,110
263,24	6,728
263,46	5,119
263,67	2,864
263,88	8,004
264,10	9,855
264,31	5,594
264,52	8,663
264,74	9,044
264,95	6,140
265,17	7,067
265,38	6,356
265,59	7,357
265,81	13,208
266,02	-0,245
266,23	5,979
266,45	13,829
266,66	12,924
266,87	8,679
267,09	4,370
267,30	11,143
267,52	12,226
267,73	7,821
267,94	9,103
268,16	8,988
268,37	3,878
268,58	6,563
268,80	6,505
269,01	5,197
269,22	10,932
269,44	3,304
269,65	7,274
269,86	0,907
270,08	9,200
270,29	0,979
270,50	8,736
270,72	11,950
270,93	4,758
271,14	5,291
271,36	4,984
271,57	7,272
271,78	3,503
272,00	8,683
272,21	9,955
272,42	10,453
272,64	8,422
272,85	3,331
273,06	4,418
273,28	8,597
273,49	6,310
273,70	8,481
273,92	7,447
274,13	11,277
274,34	4,456
274,56	7,319
274,77	4,623
274,98	9,014
275,20	5,913
275,41	7,973
275,62	7,955
275,84	5,574
276,05	8,942
276,26	2,463
276,47	1,091
276,69	7,737
276,90	9,190
277,11	5,386
277,33	4,990
277,54	11,273
277,75	7,519
277,97	4,283
278,18	5,238
278,39	7,023
278,61	5,861
278,82	7,087
279,03	7,944
279,24	9,220
279,46	6,777
279,67	6,688
279,88	4,033
280,10	11,756
280,31	4,626
280,52	7,518
280,73	2,434
280,95	7,737
281,16	7,874
281,37	4,561
281,59	9,239
281,80	12,360
282,01	6,291
282,22	3,859
282,44	2,496
282,65	12,120
282,86	10,566
283,08	4,955
283,29	4,213
283,50	4,576
283,71	7,147
283,93	5,373
284,14	7,914
284,35	6,961
284,56	5,843
284,78	4,002
284,99	6,363
285,20	10,902
285,42	5,496
285,63	4,129
285,84	1,411
286,05	2,642
286,27	4,631
286,48	2,821
286,69	5,345
286,90	7,259
287,12	3,035
287,33	4,524
287,54	3,032
287,75	6,962
287,97	5,082
288,18	5,314
288,39	2,890
288,60	6,724
288,82	5,578
289,03	5,381
289,24	4,688
289,45	10,650
289,67	5,011
289,88	1,416
290,09	3,369
290,30	6,551
290,52	5,982
290,73	4,922
290,94	0,216
291,15	5,733
291,37	6,482
291,58	5,526
291,79	6,642
292,00	9,056
292,21	5,601
292,43	3,644
292,64	3,075
292,85	4,335
293,06	8,830
293,28	5,464
293,49	2,504
293,70	8,502
293,91	3,124
294,12	4,981
294,34	5,979
294,55	6,074
294,76	3,971
294,97	7,828
295,19	4,666
295,40	4,651
295,61	6,916
295,82	2,445
296,03	7,292
296,25	5,458
296,46	3,447
296,67	2,516
296,88	1,591
297,09	6,975
297,31	4,365
297,52	5,879
297,73	4,096
297,94	8,191
298,15	6,408
298,37	4,816
298,58	6,231
298,79	6,854
299,00	3,173
299,21	4,234
299,43	3,644
299,64	11,078
299,85	5,507
300,06	3,464
300,27	2,882
300,49	8,511
300,70	5,303
300,91	4,997
301,12	3,104
301,33	9,740
301,54	2,478
301,76	5,806
301,97	3,979
302,18	3,877
302,39	6,807
302,60	14,023
302,82	6,824
303,03	7,224
303,24	9,144
303,45	7,232
303,66	4,886
303,87	4,046
304,09	8,296
304,30	4,590
304,51	4,006
304,72	2,776
304,93	7,256
305,14	4,954
305,36	3,314
305,57	2,642
305,78	7,591
305,99	3,475
306,20	4,704
306,41	4,439
306,62	1,962
306,84	3,229
307,05	3,814
307,26	5,536
307,47	9,695
307,68	5,536
307,89	5,442
308,11	5,654
308,32	5,173
308,53	3,421
308,74	3,985
308,95	3,919
309,16	8,690
309,37	6,506
309,59	3,146
309,80	3,460
310,01	7,450
310,22	4,745
310,43	3,484
310,64	6,227
310,85	8,367
311,06	4,670
311,28	6,635
311,49	5,056
311,70	8,096
311,91	1,680
312,12	4,024
312,33	6,378
312,54	6,654
312,75	6,272
312,97	7,442
313,18	6,000
313,39	4,086
313,60	5,634
313,81	6,662
314,02	6,331
314,23	7,207
314,44	1,587
314,65	3,308
314,87	3,758
315,08	6,866
315,29	6,030
315,50	7,067
315,71	8,248
315,92	8,077
316,13	5,171
316,34	3,063
316,55	8,208
316,77	3,326
316,98	3,724
317,19	4,806
317,40	8,905
317,61	9,304
317,82	5,221
318,03	3,700
318,24	4,581
318,45	7,743
318,66	6,704
318,87	3,319
319,09	8,352
319,30	7,588
319,51	6,091
319,72	8,516
319,93	5,408
320,14	7,550
320,35	6,431
320,56	3,075
320,77	3,943
320,98	8,646
321,19	5,117
321,40	4,886
321,62	7,306
321,83	5,339
322,04	4,972
322,25	6,869
322,46	10,834
322,67	7,747
322,88	4,763
323,09	5,101
323,30	8,157
323,51	6,925
323,72	7,735
323,93	3,694
324,14	6,436
324,35	1,401
324,56	3,788
324,77	6,407
324,99	4,821
325,20	0,983
325,41	5,834
325,62	6,312
325,83	2,804
326,04	4,777
326,25	8,061
326,46	2,111
326,67	6,396
326,88	7,227
327,09	4,308
327,30	2,844
327,51	6,099
327,72	7,951
327,93	6,667
328,14	3,469
328,35	4,280
328,56	7,300
328,77	3,861
328,98	7,650
329,19	5,678
329,40	3,664
329,61	3,702
329,82	3,533
330,04	4,952
330,25	4,674
330,46	6,134
330,67	3,567
330,88	4,640
331,09	5,662
331,30	6,044
331,51	3,384
331,72	7,791
331,93	8,492
332,14	2,902
332,35	7,118
332,56	3,456
332,77	5,886
332,98	3,359
333,19	4,385
333,40	8,114
333,61	5,574
333,82	9,118
334,03	4,560
334,24	9,656
334,45	6,484
334,66	7,320
334,87	5,590
335,08	2,275
335,29	4,343
335,50	4,575
335,71	2,776
335,92	7,351
336,13	6,019
336,34	0,748
336,55	9,010
336,76	7,425
336,97	6,611
337,18	2,501
337,39	5,639
337,60	5,938
337,81	5,840
338,02	2,022
338,23	4,842
338,44	5,301
338,65	7,160
338,86	5,625
339,07	2,445
339,28	7,592
339,49	7,433
339,70	2,990
339,91	5,272
340,11	7,249
340,32	3,361
340,53	4,042
340,74	1,788
340,95	3,767
341,16	5,198
341,37	6,625
341,58	2,293
341,79	4,281
342,00	4,855
342,21	6,973
342,42	3,969
342,63	7,598
342,84	2,345
343,05	4,443
343,26	7,360
343,47	4,062
343,68	5,608
343,89	5,616
344,10	6,084
344,31	8,232
344,52	2,893
344,73	4,985
344,94	5,572
345,14	4,931
345,35	5,688
345,56	6,654
345,77	3,195
345,98	6,745
346,19	5,379
346,40	4,207
346,61	5,597
346,82	3,122
347,03	6,922
347,24	5,913
347,45	3,861
347,66	9,890
347,87	5,545
348,08	7,185
348,28	3,218
348,49	6,753
348,70	6,878
348,91	7,721
349,12	4,674
349,33	18,710
349,54	4,926
349,75	10,675
349,96	5,294
350,17	5,456
350,38	-0,004
350,59	8,397
350,80	3,270
351,00	10,192
351,21	9,932
351,42	6,502
351,63	-0,708
351,84	5,869
352,05	5,909
352,26	4,871
352,47	5,660
352,68	7,743
352,89	7,881
353,09	6,954
353,30	3,125
353,51	4,100
353,72	8,842
353,93	8,471
354,14	1,845
354,35	4,563
354,56	8,984
354,77	6,822
354,98	2,119
355,18	5,021
355,39	9,744
355,60	5,394
355,81	6,215
356,02	8,058
356,23	5,094
356,44	3,834
356,65	7,921
356,85	12,979
357,06	7,768
357,27	7,216
357,48	4,014
357,69	4,535
357,90	6,974
358,11	3,652
358,32	5,008
358,52	7,657
358,73	5,520
358,94	4,544
359,15	4,749
359,36	9,307
359,57	3,940
359,78	7,482
359,98	5,430
360,19	2,707
360,40	6,253
360,61	8,849
360,82	6,238
361,03	11,140
361,24	5,468
361,44	4,200
361,65	6,596
361,86	5,614
362,07	6,759
362,28	3,568
362,49	5,168
362,70	7,312
362,90	9,988
363,11	6,849
363,32	5,635
363,53	8,295
363,74	7,774
363,95	8,698
364,15	5,270
364,36	8,938
364,57	5,609
364,78	5,523
364,99	6,383
365,20	7,640
365,40	10,847
365,61	3,119
365,82	9,640
366,03	6,699
366,24	8,672
366,45	5,914
366,65	1,496
366,86	6,392
367,07	6,167
367,28	5,561
367,49	4,776
367,69	9,090
367,90	7,054
368,11	3,777
368,32	5,125
368,53	8,872
368,73	7,296
368,94	2,726
369,15	7,160
369,36	11,164
369,57	5,377
369,78	3,055
369,98	8,284
370,19	8,083
370,40	0,762
370,61	3,538
370,82	3,582
371,02	6,863
371,23	7,642
371,44	5,709
371,65	6,896
371,85	9,256
372,06	3,933
372,27	3,752
372,48	6,175
372,69	9,348
372,89	4,525
373,10	4,349
373,31	6,177
373,52	6,759
373,73	9,287
373,93	5,005
374,14	6,291
374,35	9,428
374,56	6,354
374,76	4,439
374,97	5,473
375,18	6,564
375,39	7,855
375,60	9,226
375,80	9,324
376,01	2,522
376,22	6,805
376,43	6,103
376,63	3,220
376,84	4,841
377,05	8,874
377,26	5,368
377,46	3,208
377,67	4,838
377,88	5,785
378,09	5,916
378,29	4,483
378,50	8,537
378,71	7,488
378,92	3,436
379,12	7,465
379,33	5,653
379,54	9,336
379,75	8,371
379,95	3,133
380,16	9,794
380,37	7,983
380,58	5,428
380,78	7,034
380,99	6,851
381,20	5,730
381,41	5,783
381,61	8,025
381,82	7,249
382,03	5,455
382,24	9,191
382,44	8,516
382,65	7,592
382,86	6,293
383,06	5,597
383,27	7,216
383,48	4,950
383,69	7,814
383,89	7,564
384,10	6,450
384,31	9,897
384,51	10,799
384,72	8,475
384,93	7,822
385,14	7,790
385,34	5,963
385,55	5,167
385,76	5,137
385,96	8,930
386,17	8,147
386,38	8,283
386,59	8,625
386,79	7,178
387,00	13,610
387,21	9,408
387,41	9,241
387,62	7,138
387,83	8,922
388,03	9,277
388,24	3,260
388,45	8,781
388,66	13,412
388,86	8,284
389,07	0,401
389,28	9,938
389,48	10,591
389,69	5,028
389,90	9,042
390,10	8,875
390,31	12,480
390,52	3,978
390,72	6,553
390,93	6,161
391,14	10,476
391,34	7,875
391,55	10,253
391,76	13,365
391,96	7,693
392,17	9,523
392,38	12,025
392,58	10,498
392,79	12,198
393,00	9,174
393,20	8,138
393,41	8,877
393,62	8,708
393,82	11,645
394,03	11,678
394,24	10,816
394,44	17,106
394,65	12,882
394,86	9,503
395,06	15,483
395,27	9,221
395,48	11,429
395,68	13,653
395,89	13,006
396,10	15,010
396,30	12,377
396,51	9,982
396,72	12,011
396,92	10,454
397,13	12,431
397,34	9,189
397,54	14,325
397,75	12,999
397,95	13,816
398,16	15,472
398,37	14,788
398,57	12,995
398,78	13,805
398,99	18,172
399,19	16,482
399,40	20,721
399,60	12,466
399,81	18,246
400,02	18,358
400,22	19,593
400,43	14,073
400,64	15,109
400,84	18,334
401,05	20,306
401,25	17,923
401,46	18,612
401,67	19,929
401,87	16,491
402,08	14,007
402,29	19,342
402,49	21,738
402,70	20,825
402,90	15,745
403,11	18,124
403,32	20,504
403,52	20,074
403,73	20,695
403,93	23,876
404,14	20,993
404,35	20,828
404,55	18,064
404,76	18,330
404,96	23,057
405,17	21,425
405,38	25,973
405,58	21,784
405,79	21,458
405,99	23,723
406,20	23,978
406,40	21,671
406,61	24,270
406,82	23,198
407,02	24,569
407,23	23,891
407,43	23,230
407,64	23,512
407,85	25,321
408,05	17,347
408,26	33,479
408,46	29,350
408,67	23,335
408,87	19,953
409,08	28,598
409,29	31,757
409,49	28,747
409,70	28,524
409,90	32,006
410,11	27,404
410,31	33,262
410,52	28,283
410,72	29,894
410,93	33,996
411,14	30,280
411,34	28,214
411,55	34,498
411,75	34,572
411,96	30,260
412,16	30,414
412,37	32,324
412,57	31,233
412,78	32,942
412,99	31,998
413,19	35,644
413,40	30,859
413,60	29,979
413,81	31,469
414,01	33,060
414,22	29,584
414,42	33,329
414,63	27,704
414,83	33,880
415,04	35,944
415,24	33,453
415,45	31,529
415,65	31,654
415,86	34,526
416,07	35,654
416,27	38,357
416,48	40,786
416,68	38,185
416,89	31,741
417,09	35,925
417,30	40,519
417,50	37,767
417,71	37,405
417,91	40,179
418,12	35,721
418,32	37,338
418,53	39,949
418,73	36,798
418,94	36,907
419,14	38,028
419,35	36,980
419,55	37,058
419,76	40,620
419,96	39,640
420,17	39,403
420,37	37,926
420,58	40,393
420,78	39,611
420,99	35,996
421,19	40,242
421,40	38,331
421,60	43,090
421,81	35,646
422,01	40,759
422,22	40,749
422,42	41,891
422,63	43,483
422,83	41,280
423,04	43,928
423,24	45,017
423,45	39,924
423,65	42,287
423,86	45,149
424,06	42,554
424,27	41,607
424,47	38,922
424,67	41,089
424,88	45,049
425,08	39,778
425,29	52,148
425,49	40,683
425,70	42,026
425,90	41,654
426,11	40,703
426,31	43,528
426,52	45,399
426,72	43,345
426,93	41,524
427,13	47,454
427,33	43,467
427,54	48,615
427,74	46,811
427,95	48,318
428,15	41,463
428,36	43,459
428,56	42,544
428,77	44,695
428,97	48,087
429,18	48,428
429,38	41,373
429,58	48,334
429,79	44,657
429,99	45,209
430,20	40,121
430,40	47,683
430,61	44,110
430,81	42,394
431,01	45,167
431,22	46,714
431,42	50,551
431,63	43,934
431,83	47,492
432,04	45,438
432,24	49,119
432,44	44,571
432,65	40,406
432,85	41,414
433,06	42,892
433,26	42,979
433,47	43,324
433,67	42,270
433,87	45,000
434,08	41,306
434,28	42,779
434,49	45,166
434,69	47,427
434,89	41,871
435,10	44,754
435,30	44,449
435,51	43,492
435,71	44,127
435,91	44,950
436,12	44,334
436,32	42,409
436,53	44,967
436,73	46,058
436,93	46,341
437,14	45,955
437,34	44,664
437,55	46,816
437,75	49,098
437,95	50,851
438,16	48,572
438,36	52,530
438,57	44,603
438,77	46,889
438,97	50,941
439,18	49,783
439,38	46,685
439,58	46,715
439,79	49,942
439,99	45,348
440,20	49,136
440,40	53,398
440,60	44,847
440,81	50,236
441,01	48,967
441,21	51,121
441,42	50,448
441,62	49,960
441,83	49,546
442,03	49,939
442,23	50,249
442,44	46,472
442,64	53,521
442,84	46,722
443,05	48,580
443,25	42,815
443,45	50,883
443,66	50,259
443,86	45,524
444,06	47,090
444,27	49,500
444,47	47,237
444,67	50,847
444,88	52,169
445,08	51,550
445,28	48,419
445,49	46,651
445,69	46,140
445,90	49,597
446,10	53,546
446,30	49,525
446,51	48,876
446,71	56,008
446,91	54,675
447,12	56,408
447,32	47,185
447,52	51,231
447,72	49,515
447,93	48,541
448,13	47,865
448,33	53,489
448,54	54,215
448,74	46,535
448,94	52,163
449,15	53,882
449,35	52,432
449,55	49,138
449,76	54,923
449,96	55,646
450,16	53,761
450,37	51,482
450,57	48,874
450,77	51,049
450,98	48,575
451,18	52,365
451,38	49,978
451,58	50,825
451,79	53,482
451,99	51,341
452,19	48,357
452,40	54,111
452,60	50,194
452,80	48,700
