Fichero De Datos De SpectraSuite
++++++++++++++++++++++++++++++++++++
Fecha: Wed Apr 22 11:39:35 CEST 2009
Usuario: evoflor
Presente Oscuro Del Espectro: Sí
La Referencia de Presente Del Espectro De: Sí
Muestreados de los componentes de Número de espectros: 1
Espectrómetros: USB4F02353
Tiempo de integración (usec): 500000 (USB4F02353)
Promedio de Espectros Hechos un: 5 (USB4F02353)
El Alisar Del Furgón: 0 (USB4F02353)
Párrafo de de Corregir del la del del de Eléctrica del obscuridad: Sí (USB4F02353)
Estrobo/Lámpara Permitido: No (USB4F02353)
Correct for Detector Non-linearity: No (USB4F02353)
Párrafo de de Corregir del la del del de Externa del luz: No (USB4F02353)
Procesado del espectro de Número de pixeles en: 3648
>>>>> Comienza Data<<<<< Espectral Procesado Del EL
177,79	231,610
178,00	231,610
178,22	231,610
178,44	1168,791
178,66	-294,058
178,88	534,072
179,09	-378,468
179,31	293,983
179,53	593,003
179,75	189,277
179,96	223,621
180,18	-356,738
180,40	280,382
180,62	500,902
180,83	-227,521
181,05	-480,976
181,27	-77240,000
181,49	12,087
181,70	141,308
181,92	912,893
182,14	498,313
182,36	-13,461
182,58	-520,400
182,79	963,571
183,01	-31,618
183,23	47,834
183,45	-240,431
183,66	-35,133
183,88	697,882
184,10	-3678,909
184,32	244,653
184,53	253,382
184,75	-233,166
184,97	128,028
185,18	-63,985
185,40	-704,519
185,62	155,041
185,84	-173,275
186,05	65,564
186,27	-188,459
186,49	651,538
186,71	-46,041
186,92	40,073
187,14	-181,326
187,36	177,793
187,58	68,171
187,79	-125,593
188,01	362,813
188,23	-175,966
188,45	123,248
188,66	352,857
188,88	-618,909
189,10	-1654,400
189,31	0,273
189,53	-41,350
189,75	140,773
189,97	342,077
190,18	157,682
190,40	697,882
190,62	-65,340
190,83	-246,576
191,05	235,835
191,27	308,114
191,49	349,356
191,70	-284,808
191,92	-212,203
192,14	-63,002
192,35	524,775
192,57	3878,286
192,79	161,542
193,01	192,262
193,22	145,118
193,44	-70,375
193,66	72,963
193,87	-8,051
194,09	-39,978
194,31	206,438
194,53	477,203
194,74	130,387
194,96	59,642
195,18	175,986
195,39	-253,668
195,61	-136,917
195,83	-124,870
196,04	71,798
196,26	-175,578
196,48	46,209
196,70	192,922
196,91	-8,792
197,13	136,304
197,35	-80,708
197,56	253,065
197,78	2349,552
198,00	609,371
198,21	632,718
198,43	-689,767
198,65	124,313
198,86	313,453
199,08	126,361
199,30	129,028
199,51	-154,853
199,73	237,290
199,95	478,564
200,16	657,077
200,38	223,068
200,60	99,914
200,81	122,998
201,03	46,033
201,25	-1825,400
201,46	123,649
201,68	44,807
201,90	2819,091
202,11	-205,496
202,33	191,993
202,55	-755,750
202,76	0,183
202,98	62,160
203,20	156,538
203,41	-453,895
203,63	49,395
203,85	-68240,000
204,06	141,624
204,28	-166,602
204,50	156,137
204,71	201,661
204,93	-519,680
205,15	34,759
205,36	-178,662
205,58	300,269
205,80	-68,945
206,01	82,377
206,23	184,021
206,45	207,804
206,66	182,241
206,88	-122,252
207,10	328,955
207,31	393,166
207,53	-26,171
207,75	74,091
207,96	925,672
208,18	-223,959
208,39	0,849
208,61	3801,143
208,83	-236,117
209,04	151,906
209,26	-297,880
209,48	200,080
209,69	98,452
209,91	704,865
210,13	-9,459
210,34	41,017
210,56	165,389
210,77	-1472,756
210,99	9,672
211,21	7614,118
211,42	-111,445
211,64	-45,102
211,86	204,484
212,07	298,902
212,29	211,618
212,50	125,525
212,72	72,077
212,94	193,730
213,15	178,970
213,37	101,536
213,58	-199,202
213,80	648,571
214,02	8514,118
214,23	254,270
214,45	324,066
214,67	133,659
214,88	205,906
215,10	-183,521
215,31	99,869
215,53	-51,500
215,75	143,722
215,96	1144,969
216,18	276,620
216,39	305,202
216,61	333,712
216,83	316,696
217,04	948,764
217,26	44,742
217,47	137,392
217,69	384,249
217,91	-22,784
218,12	-85340,000
218,34	208,303
218,55	448,382
218,77	35,385
218,99	171,182
219,20	-71,979
219,42	367,439
219,63	-51,471
219,85	-78,419
220,06	-197,923
220,28	157,625
220,50	32,794
220,71	67,515
220,93	3580,000
221,14	-1753,400
221,36	-37,553
221,58	49,382
221,79	180,484
222,01	821,034
222,22	212,105
222,44	-790,562
222,65	139,784
222,87	168,811
223,09	156,519
223,30	91,347
223,52	202,673
223,73	140,217
223,95	-5,296
224,16	207,505
224,38	272,607
224,60	92,255
224,81	185,476
225,03	28,568
225,24	155,256
225,46	83,455
225,67	68,460
225,89	45,733
226,10	238,072
226,32	70,720
226,54	26,361
226,75	-20,826
226,97	107,606
227,18	111,607
227,40	71,656
227,61	34,177
227,83	8,573
228,04	56,631
228,26	54,847
228,47	96,131
228,69	186,989
228,91	130,328
229,12	32,812
229,34	15,500
229,55	48,402
229,77	30,479
229,98	-0,572
230,20	53,380
230,41	4,064
230,63	91,012
230,84	-6,194
231,06	8,366
231,27	45,174
231,49	14,981
231,71	28,370
231,92	38,466
232,14	35,787
232,35	75,851
232,57	40,438
232,78	8,009
233,00	14,743
233,21	71,240
233,43	4,380
233,64	29,141
233,86	36,280
234,07	31,398
234,29	20,732
234,50	26,367
234,72	44,766
234,93	-5,993
235,15	22,255
235,36	16,530
235,58	34,415
235,79	34,292
236,01	-0,207
236,22	3,966
236,44	46,080
236,65	18,991
236,87	34,205
237,08	7,119
237,30	-18,265
237,51	24,141
237,73	-6,993
237,94	4,516
238,16	17,701
238,37	11,858
238,59	23,098
238,80	-7,422
239,02	12,846
239,23	14,214
239,45	1,199
239,66	23,417
239,88	33,281
240,09	25,293
240,31	3,397
240,52	8,509
240,74	15,334
240,95	12,431
241,17	5,767
241,38	-0,499
241,60	11,464
241,81	25,819
242,03	12,774
242,24	10,132
242,46	18,204
242,67	1,321
242,89	12,239
243,10	17,550
243,32	15,055
243,53	17,076
243,75	3,881
243,96	8,457
244,18	10,468
244,39	10,333
244,60	9,512
244,82	6,887
245,03	15,855
245,25	12,317
245,46	20,592
245,68	8,652
245,89	11,844
246,11	18,727
246,32	8,803
246,54	3,745
246,75	4,695
246,97	8,177
247,18	21,406
247,39	3,906
247,61	8,806
247,82	5,395
248,04	4,448
248,25	8,784
248,47	19,346
248,68	9,117
248,90	3,495
249,11	10,656
249,33	15,030
249,54	9,589
249,75	13,349
249,97	0,203
250,18	17,996
250,40	10,633
250,61	-6,293
250,83	5,743
251,04	0,393
251,25	14,059
251,47	1,802
251,68	9,960
251,90	9,358
252,11	6,315
252,33	6,784
252,54	9,117
252,76	4,462
252,97	7,135
253,18	0,380
253,40	2,870
253,61	7,260
253,83	9,691
254,04	11,917
254,25	5,148
254,47	3,136
254,68	8,598
254,90	7,005
255,11	9,993
255,33	4,969
255,54	6,421
255,75	6,883
255,97	3,624
256,18	3,515
256,40	7,723
256,61	8,791
256,82	1,963
257,04	12,891
257,25	5,487
257,47	9,376
257,68	3,819
257,89	10,935
258,11	8,282
258,32	7,393
258,54	4,727
258,75	12,588
258,96	14,026
259,18	4,946
259,39	2,527
259,61	8,177
259,82	7,291
260,03	9,030
260,25	8,856
260,46	3,879
260,68	7,249
260,89	1,873
261,10	7,443
261,32	7,977
261,53	2,530
261,75	8,903
261,96	-0,340
262,17	11,761
262,39	9,837
262,60	3,126
262,81	2,609
263,03	12,698
263,24	7,339
263,46	6,758
263,67	4,316
263,88	6,613
264,10	9,436
264,31	3,892
264,52	6,201
264,74	11,067
264,95	6,670
265,17	11,530
265,38	5,321
265,59	9,695
265,81	8,146
266,02	4,892
266,23	3,676
266,45	9,512
266,66	12,958
266,87	10,563
267,09	2,817
267,30	7,861
267,52	11,069
267,73	7,026
267,94	6,351
268,16	8,725
268,37	3,840
268,58	3,704
268,80	7,099
269,01	6,918
269,22	8,004
269,44	4,466
269,65	8,882
269,86	2,617
270,08	5,675
270,29	3,059
270,50	4,237
270,72	8,225
270,93	4,833
271,14	2,295
271,36	3,992
271,57	7,535
271,78	2,747
272,00	5,065
272,21	9,045
272,42	6,857
272,64	5,853
272,85	2,340
273,06	5,513
273,28	8,562
273,49	7,170
273,70	10,986
273,92	7,270
274,13	12,320
274,34	7,635
274,56	5,578
274,77	1,631
274,98	9,692
275,20	7,801
275,41	11,102
275,62	5,347
275,84	7,713
276,05	12,004
276,26	1,651
276,47	2,009
276,69	9,681
276,90	6,587
277,11	4,759
277,33	4,191
277,54	7,269
277,75	7,758
277,97	1,709
278,18	5,725
278,39	7,689
278,61	2,717
278,82	6,574
279,03	5,463
279,24	7,263
279,46	5,845
279,67	10,329
279,88	4,940
280,10	8,980
280,31	1,387
280,52	5,241
280,73	1,675
280,95	7,635
281,16	11,558
281,37	7,210
281,59	9,820
281,80	11,082
282,01	4,013
282,22	5,104
282,44	4,393
282,65	8,732
282,86	6,805
283,08	7,631
283,29	6,134
283,50	5,019
283,71	5,465
283,93	6,701
284,14	6,289
284,35	4,659
284,56	6,527
284,78	4,093
284,99	5,275
285,20	9,590
285,42	4,735
285,63	9,189
285,84	3,410
286,05	5,623
286,27	5,775
286,48	4,724
286,69	4,263
286,90	5,428
287,12	4,783
287,33	4,240
287,54	6,617
287,75	4,983
287,97	5,243
288,18	3,837
288,39	3,989
288,60	5,520
288,82	5,493
289,03	3,992
289,24	5,954
289,45	8,233
289,67	7,121
289,88	2,920
290,09	5,692
290,30	6,956
290,52	5,115
290,73	5,756
290,94	1,699
291,15	6,567
291,37	5,916
291,58	4,612
291,79	5,920
292,00	5,991
292,21	7,172
292,43	5,345
292,64	4,036
292,85	3,638
293,06	8,194
293,28	4,149
293,49	5,036
293,70	7,960
293,91	3,588
294,12	5,807
294,34	3,836
294,55	5,861
294,76	7,340
294,97	7,731
295,19	1,954
295,40	5,913
295,61	5,490
295,82	0,846
296,03	6,220
296,25	5,381
296,46	4,162
296,67	1,810
296,88	0,755
297,09	7,244
297,31	5,609
297,52	4,919
297,73	3,039
297,94	5,958
298,15	5,314
298,37	5,312
298,58	5,103
298,79	7,741
299,00	3,928
299,21	2,341
299,43	2,792
299,64	9,935
299,85	4,404
300,06	2,543
300,27	4,132
300,49	10,120
300,70	4,681
300,91	4,309
301,12	2,904
301,33	7,932
301,54	4,066
301,76	6,806
301,97	6,190
302,18	4,623
302,39	5,730
302,60	14,070
302,82	5,202
303,03	7,560
303,24	3,546
303,45	4,082
303,66	4,835
303,87	4,916
304,09	8,295
304,30	2,888
304,51	5,206
304,72	3,964
304,93	6,909
305,14	6,168
305,36	2,948
305,57	5,092
305,78	3,683
305,99	2,863
306,20	7,313
306,41	3,584
306,62	4,324
306,84	4,773
307,05	2,321
307,26	4,660
307,47	8,515
307,68	5,098
307,89	3,024
308,11	4,905
308,32	3,200
308,53	3,587
308,74	2,778
308,95	4,990
309,16	7,860
309,37	4,990
309,59	3,592
309,80	1,975
310,01	5,833
310,22	6,327
310,43	3,365
310,64	6,728
310,85	6,492
311,06	3,458
311,28	3,210
311,49	5,733
311,70	9,038
311,91	4,901
312,12	4,142
312,33	5,780
312,54	6,033
312,75	5,040
312,97	3,953
313,18	5,781
313,39	4,134
313,60	2,946
313,81	5,546
314,02	6,812
314,23	7,480
314,44	1,128
314,65	5,144
314,87	1,851
315,08	4,676
315,29	5,933
315,50	6,325
315,71	7,576
315,92	8,368
316,13	2,309
316,34	5,718
316,55	7,596
316,77	3,805
316,98	3,549
317,19	6,182
317,40	6,702
317,61	6,920
317,82	5,579
318,03	4,382
318,24	4,855
318,45	7,597
318,66	4,662
318,87	0,606
319,09	7,554
319,30	5,503
319,51	5,771
319,72	5,716
319,93	4,684
320,14	6,801
320,35	7,301
320,56	2,876
320,77	3,158
320,98	9,281
321,19	4,756
321,40	3,618
321,62	5,102
321,83	3,566
322,04	5,983
322,25	4,720
322,46	6,885
322,67	7,855
322,88	6,664
323,09	3,036
323,30	8,366
323,51	7,925
323,72	6,777
323,93	1,245
324,14	4,676
324,35	2,499
324,56	1,158
324,77	4,131
324,99	3,474
325,20	1,716
325,41	5,834
325,62	7,351
325,83	3,388
326,04	3,230
326,25	6,481
326,46	-0,427
326,67	6,419
326,88	6,407
327,09	4,595
327,30	2,269
327,51	5,610
327,72	6,249
327,93	5,935
328,14	0,793
328,35	2,742
328,56	7,249
328,77	2,675
328,98	5,064
329,19	4,791
329,40	3,971
329,61	5,516
329,82	2,680
330,04	5,188
330,25	4,174
330,46	4,921
330,67	1,444
330,88	4,300
331,09	4,390
331,30	4,186
331,51	3,145
331,72	5,726
331,93	7,885
332,14	6,398
332,35	8,592
332,56	5,399
332,77	5,859
332,98	3,226
333,19	2,913
333,40	6,024
333,61	2,889
333,82	6,437
334,03	4,879
334,24	5,912
334,45	2,221
334,66	5,741
334,87	7,260
335,08	2,910
335,29	2,354
335,50	2,137
335,71	1,726
335,92	6,477
336,13	6,908
336,34	2,009
336,55	4,927
336,76	7,212
336,97	3,719
337,18	2,315
337,39	5,090
337,60	7,178
337,81	4,295
338,02	3,774
338,23	5,437
338,44	4,775
338,65	4,631
338,86	5,570
339,07	2,417
339,28	5,862
339,49	3,406
339,70	-0,201
339,91	5,350
340,11	7,382
340,32	1,949
340,53	1,549
340,74	2,322
340,95	3,465
341,16	7,354
341,37	5,564
341,58	3,732
341,79	3,456
342,00	4,311
342,21	3,877
342,42	4,621
342,63	6,399
342,84	3,250
343,05	4,795
343,26	6,239
343,47	6,460
343,68	4,056
343,89	5,067
344,10	6,029
344,31	5,905
344,52	5,511
344,73	2,684
344,94	7,596
345,14	5,565
345,35	5,973
345,56	3,945
345,77	3,362
345,98	7,320
346,19	4,011
346,40	7,099
346,61	3,673
346,82	5,318
347,03	5,682
347,24	7,735
347,45	2,375
347,66	8,581
347,87	2,552
348,08	6,166
348,28	0,451
348,49	4,010
348,70	7,126
348,91	7,577
349,12	2,476
349,33	16,730
349,54	3,401
349,75	6,608
349,96	5,976
350,17	9,172
350,38	4,584
350,59	5,007
350,80	5,422
351,00	7,714
351,21	7,960
351,42	3,717
351,63	3,488
351,84	4,778
352,05	7,707
352,26	4,338
352,47	3,674
352,68	7,543
352,89	7,938
353,09	3,867
353,30	-0,908
353,51	3,770
353,72	5,972
353,93	7,476
354,14	2,460
354,35	5,223
354,56	7,173
354,77	5,640
354,98	2,836
355,18	7,224
355,39	10,508
355,60	2,593
355,81	3,515
356,02	5,290
356,23	6,600
356,44	2,274
356,65	4,869
356,85	10,843
357,06	7,678
357,27	6,473
357,48	4,762
357,69	7,245
357,90	5,486
358,11	-2,066
358,32	2,590
358,52	6,041
358,73	5,342
358,94	3,974
359,15	7,727
359,36	6,943
359,57	6,912
359,78	5,503
359,98	1,886
360,19	3,850
360,40	2,551
360,61	9,107
360,82	4,523
361,03	7,296
361,24	8,454
361,44	3,594
361,65	4,415
361,86	5,337
362,07	4,298
362,28	5,383
362,49	3,250
362,70	5,860
362,90	5,729
363,11	2,071
363,32	3,539
363,53	6,417
363,74	10,960
363,95	8,757
364,15	6,448
364,36	9,142
364,57	7,517
364,78	6,325
364,99	5,181
365,20	6,899
365,40	7,407
365,61	3,928
365,82	8,956
366,03	3,752
366,24	6,588
366,45	3,157
366,65	6,436
366,86	5,082
367,07	3,366
367,28	2,075
367,49	4,300
367,69	9,030
367,90	3,356
368,11	7,042
368,32	3,770
368,53	7,924
368,73	8,644
368,94	-0,425
369,15	3,806
369,36	5,773
369,57	3,951
369,78	3,023
369,98	5,872
370,19	10,191
370,40	4,868
370,61	5,557
370,82	2,973
371,02	7,266
371,23	11,174
371,44	4,224
371,65	6,832
371,85	5,719
372,06	5,557
372,27	6,429
372,48	5,322
372,69	3,592
372,89	2,014
373,10	3,574
373,31	7,762
373,52	7,151
373,73	9,998
373,93	5,676
374,14	5,100
374,35	6,436
374,56	8,331
374,76	5,369
374,97	5,409
375,18	6,311
375,39	8,751
375,60	9,475
375,80	6,245
376,01	6,095
376,22	5,628
376,43	6,042
376,63	5,135
376,84	4,934
377,05	4,390
377,26	4,727
377,46	4,845
377,67	6,024
377,88	8,488
378,09	6,805
378,29	2,889
378,50	8,358
378,71	7,153
378,92	3,223
379,12	7,117
379,33	4,261
379,54	7,716
379,75	10,409
379,95	3,225
380,16	7,496
380,37	10,301
380,58	5,989
380,78	9,307
380,99	4,564
381,20	8,822
381,41	4,541
381,61	9,167
381,82	7,055
382,03	9,965
382,24	7,460
382,44	10,701
382,65	7,621
382,86	7,154
383,06	7,353
383,27	9,020
383,48	7,475
383,69	12,880
383,89	8,706
384,10	6,449
384,31	10,883
384,51	10,172
384,72	10,196
384,93	7,525
385,14	8,666
385,34	8,849
385,55	7,850
385,76	9,043
385,96	11,472
386,17	10,754
386,38	11,559
386,59	13,052
386,79	5,308
387,00	12,564
387,21	13,579
387,41	9,006
387,62	7,137
387,83	13,585
388,03	9,766
388,24	8,189
388,45	11,490
388,66	12,032
388,86	11,337
389,07	7,812
389,28	16,168
389,48	15,703
389,69	9,308
389,90	8,352
390,10	14,094
390,31	15,026
390,52	7,163
390,72	9,489
390,93	14,844
391,14	12,779
391,34	12,006
391,55	14,684
391,76	16,906
391,96	12,936
392,17	14,445
392,38	13,845
392,58	18,616
392,79	14,483
393,00	13,713
393,20	13,307
393,41	14,041
393,62	15,815
393,82	18,017
394,03	19,187
394,24	17,125
394,44	21,771
394,65	16,464
394,86	16,688
395,06	18,701
395,27	19,894
395,48	16,487
395,68	20,175
395,89	19,638
396,10	20,047
396,30	14,023
396,51	18,152
396,72	20,815
396,92	18,618
397,13	19,930
397,34	15,551
397,54	26,366
397,75	19,371
397,95	17,954
398,16	23,161
398,37	20,741
398,57	20,820
398,78	24,376
398,99	25,146
399,19	24,938
399,40	26,465
399,60	20,135
399,81	23,185
400,02	26,376
400,22	25,055
400,43	22,903
400,64	25,861
400,84	25,896
401,05	27,064
401,25	27,706
401,46	26,648
401,67	26,307
401,87	28,936
402,08	28,018
402,29	28,537
402,49	29,266
402,70	31,423
402,90	24,601
403,11	28,413
403,32	31,759
403,52	29,369
403,73	32,362
403,93	30,385
404,14	32,186
404,35	31,293
404,55	28,067
404,76	29,810
404,96	33,711
405,17	33,613
405,38	35,321
405,58	28,626
405,79	34,779
405,99	35,217
406,20	34,241
406,40	29,936
406,61	36,959
406,82	38,121
407,02	36,574
407,23	34,697
407,43	36,269
407,64	34,365
407,85	37,042
408,05	33,434
408,26	45,823
408,46	45,145
408,67	33,419
408,87	37,914
409,08	39,833
409,29	43,532
409,49	39,625
409,70	40,266
409,90	39,215
410,11	39,526
410,31	42,518
410,52	40,142
410,72	40,344
410,93	42,202
411,14	42,124
411,34	39,328
411,55	43,752
411,75	42,057
411,96	40,466
412,16	44,177
412,37	41,089
412,57	44,624
412,78	44,522
412,99	43,916
413,19	48,863
413,40	45,823
413,60	39,928
413,81	43,680
414,01	44,115
414,22	44,432
414,42	47,011
414,63	44,993
414,83	47,011
415,04	49,073
415,24	48,424
415,45	45,798
415,65	45,373
415,86	55,204
416,07	47,957
416,27	45,536
416,48	49,249
416,68	51,499
416,89	44,497
417,09	48,271
417,30	49,540
417,50	47,997
417,71	52,185
417,91	50,105
418,12	48,471
418,32	50,122
418,53	46,545
418,73	49,393
418,94	49,104
419,14	50,333
419,35	47,747
419,55	48,494
419,76	55,189
419,96	49,705
420,17	47,994
420,37	48,347
420,58	52,649
420,78	50,268
420,99	47,626
421,19	53,782
421,40	49,548
421,60	54,780
421,81	50,550
422,01	50,740
422,22	55,766
422,42	57,417
422,63	55,527
422,83	52,088
423,04	55,513
423,24	60,421
423,45	49,126
423,65	54,049
423,86	60,139
424,06	57,124
424,27	54,955
424,47	54,656
424,67	50,994
424,88	58,350
425,08	54,073
425,29	61,048
425,49	53,859
425,70	49,629
425,90	55,030
426,11	50,990
426,31	55,671
426,52	57,813
426,72	49,330
426,93	55,632
427,13	57,243
427,33	53,208
427,54	57,604
427,74	57,124
427,95	64,240
428,15	54,401
428,36	53,172
428,56	53,082
428,77	56,557
428,97	59,949
429,18	60,160
429,38	54,242
429,58	61,121
429,79	55,404
429,99	55,336
430,20	52,413
430,40	62,183
430,61	55,156
430,81	56,075
431,01	60,636
431,22	60,361
431,42	56,478
431,63	53,743
431,83	57,477
432,04	59,183
432,24	59,757
432,44	53,937
432,65	53,829
432,85	53,470
433,06	59,673
433,26	51,945
433,47	55,072
433,67	54,954
433,87	52,347
434,08	55,970
434,28	54,407
434,49	55,061
434,69	57,316
434,89	48,594
435,10	53,122
435,30	56,842
435,51	54,156
435,71	52,971
435,91	51,888
436,12	55,883
436,32	54,696
436,53	55,952
436,73	55,532
436,93	59,316
437,14	56,743
437,34	57,195
437,55	55,742
437,75	55,819
437,95	60,410
438,16	61,713
438,36	60,465
438,57	58,742
438,77	59,214
438,97	60,490
439,18	59,561
439,38	61,278
439,58	56,891
439,79	59,075
439,99	54,964
440,20	65,467
440,40	59,472
440,60	55,323
440,81	62,730
441,01	59,837
441,21	63,999
441,42	62,401
441,62	69,944
441,83	56,284
442,03	63,267
442,23	61,604
442,44	55,796
442,64	64,791
442,84	59,683
443,05	60,017
443,25	57,315
443,45	62,699
443,66	58,501
443,86	63,089
444,06	61,532
444,27	59,074
444,47	61,426
444,67	63,210
444,88	62,306
445,08	60,112
445,28	59,112
445,49	61,304
445,69	56,157
445,90	63,092
446,10	64,102
446,30	55,323
446,51	62,856
446,71	67,080
446,91	65,486
447,12	66,319
447,32	59,188
447,52	61,942
447,72	64,377
447,93	60,003
448,13	58,540
448,33	64,501
448,54	59,980
448,74	54,726
448,94	63,082
449,15	63,784
449,35	61,868
449,55	65,455
449,76	66,067
449,96	60,800
450,16	62,969
450,37	58,015
450,57	61,582
450,77	60,226
450,98	63,024
451,18	66,951
451,38	61,177
451,58	63,362
451,79	65,139
451,99	59,708
452,19	63,917
452,40	64,950
452,60	61,904
452,80	61,477
