Fichero De Datos De SpectraSuite
++++++++++++++++++++++++++++++++++++
Fecha: Wed Apr 22 11:48:00 CEST 2009
Usuario: evoflor
Presente Oscuro Del Espectro: Sí
La Referencia de Presente Del Espectro De: Sí
Muestreados de los componentes de Número de espectros: 1
Espectrómetros: USB4F02353
Tiempo de integración (usec): 500000 (USB4F02353)
Promedio de Espectros Hechos un: 5 (USB4F02353)
El Alisar Del Furgón: 0 (USB4F02353)
Párrafo de de Corregir del la del del de Eléctrica del obscuridad: Sí (USB4F02353)
Estrobo/Lámpara Permitido: No (USB4F02353)
Correct for Detector Non-linearity: No (USB4F02353)
Párrafo de de Corregir del la del del de Externa del luz: No (USB4F02353)
Procesado del espectro de Número de pixeles en: 3648
>>>>> Comienza Data<<<<< Espectral Procesado Del EL
177,79	242,219
178,00	242,219
178,22	242,219
178,44	1798,901
178,66	-331,565
178,88	228,339
179,09	-50,213
179,31	249,043
179,53	485,139
179,75	43,675
179,96	1048,276
180,18	-160,923
180,40	77,707
180,62	303,448
180,83	-341,736
181,05	-593,902
181,27	-93700,000
181,49	13,478
181,70	215,000
181,92	1019,289
182,14	382,530
182,36	218,356
182,58	386,000
182,79	1000,893
183,01	-5,508
183,23	132,344
183,45	30,154
183,66	-56,195
183,88	408,235
184,10	-1130,909
184,32	111,634
184,53	140,607
184,75	-75,850
184,97	59,858
185,18	-6,955
185,40	-731,731
185,62	83,673
185,84	-44,978
186,05	234,817
186,27	-77,805
186,49	4607,692
186,71	98,887
186,92	145,949
187,14	-190,778
187,36	150,221
187,58	58,824
187,79	-19,301
188,01	193,509
188,23	-271,307
188,45	44,695
188,66	56,696
188,88	-2096,364
189,10	-2170,000
189,31	47,440
189,53	39,599
189,75	474,773
189,97	526,538
190,18	39,056
190,40	863,529
190,62	-313,098
190,83	-378,405
191,05	176,153
191,27	406,571
191,49	403,465
191,70	-286,058
191,92	-679,661
192,14	-91,208
192,35	716,446
192,57	5094,286
192,79	11,777
193,01	109,147
193,22	101,969
193,44	9,044
193,66	125,823
193,87	40,685
194,09	-138,194
194,31	137,515
194,53	529,371
194,74	53,871
194,96	107,161
195,18	126,137
195,39	-287,599
195,61	-74,404
195,83	-186,087
196,04	140,879
196,26	13,065
196,48	42,519
196,70	252,485
196,91	66,415
197,13	168,861
197,35	-11,973
197,56	616,099
197,78	1780,597
198,00	648,951
198,21	61,650
198,43	-952,907
198,65	182,012
198,86	152,518
199,08	106,557
199,30	359,109
199,51	-739,088
199,73	159,344
199,95	387,871
200,16	782,692
200,38	300,602
200,60	223,538
200,81	341,328
201,03	423,370
201,25	-1288,000
201,46	217,854
201,68	55,231
201,90	902,273
202,11	-72,519
202,33	228,007
202,55	743,750
202,76	-47,483
202,98	106,969
203,20	-65,385
203,41	-185,263
203,63	171,166
203,85	-137800,000
204,06	-8,121
204,28	-158,554
204,50	151,122
204,71	233,922
204,93	-431,200
205,15	173,795
205,36	-156,788
205,58	269,674
205,80	-128,980
206,01	72,666
206,23	207,473
206,45	303,835
206,66	146,870
206,88	-18,319
207,10	294,773
207,31	269,536
207,53	154,571
207,75	-61,244
207,96	705,970
208,18	-150,683
208,39	8,372
208,61	3551,429
208,83	-211,582
209,04	61,884
209,26	-386,175
209,48	241,750
209,69	187,419
209,91	702,703
210,13	12,750
210,34	6,780
210,56	150,214
210,77	-1212,598
210,99	127,011
211,21	9217,647
211,42	-46,131
211,64	-0,661
211,86	200,491
212,07	260,260
212,29	195,312
212,50	109,625
212,72	83,462
212,94	78,109
213,15	175,059
213,37	106,531
213,58	33,703
213,80	-3282,143
214,02	13770,588
214,23	169,343
214,45	360,328
214,67	328,049
214,88	-33,557
215,10	-201,408
215,31	-68,559
215,53	-40,682
215,75	238,087
215,96	1331,056
216,18	685,915
216,39	236,718
216,61	344,105
216,83	723,661
217,04	1528,090
217,26	-41,935
217,47	172,880
217,69	299,444
217,91	27,577
218,12	-73000,000
218,34	123,968
218,55	482,493
218,77	5,717
218,99	71,343
219,20	-132,487
219,42	215,549
219,63	74,627
219,85	-126,214
220,06	121,538
220,28	174,835
220,50	141,214
220,71	71,856
220,93	2650,943
221,14	-1504,000
221,36	72,084
221,58	12,909
221,79	93,947
222,01	823,276
222,22	130,921
222,44	476,404
222,65	112,851
222,87	202,098
223,09	134,323
223,30	54,822
223,52	242,439
223,73	177,205
223,95	0,141
224,16	115,258
224,38	448,104
224,60	89,658
224,81	85,847
225,03	71,476
225,24	172,767
225,46	130,233
225,67	59,565
225,89	0,131
226,10	431,325
226,32	360,800
226,54	-81,603
226,75	12,500
226,97	97,592
227,18	83,016
227,40	47,699
227,61	16,093
227,83	63,111
228,04	119,585
228,26	44,479
228,47	50,053
228,69	139,420
228,91	144,886
229,12	49,785
229,34	29,617
229,55	22,533
229,77	12,643
229,98	-39,773
230,20	78,850
230,41	11,383
230,63	39,029
230,84	51,007
231,06	29,375
231,27	10,707
231,49	52,813
231,71	56,552
231,92	21,740
232,14	11,971
232,35	80,893
232,57	68,231
232,78	26,908
233,00	50,963
233,21	53,006
233,43	10,350
233,64	17,988
233,86	32,934
234,07	33,102
234,29	7,763
234,50	22,462
234,72	47,379
234,93	13,784
235,15	30,642
235,36	13,266
235,58	34,080
235,79	24,749
236,01	17,918
236,22	12,640
236,44	35,788
236,65	15,431
236,87	12,519
237,08	-6,985
237,30	-1,574
237,51	23,710
237,73	-5,723
237,94	8,427
238,16	26,245
238,37	8,110
238,59	14,937
238,80	18,384
239,02	11,009
239,23	21,306
239,45	-5,237
239,66	26,222
239,88	31,999
240,09	29,664
240,31	-3,083
240,52	13,709
240,74	15,473
240,95	10,787
241,17	6,782
241,38	3,290
241,60	7,412
241,81	30,923
242,03	6,406
242,24	9,027
242,46	22,166
242,67	8,016
242,89	8,662
243,10	13,362
243,32	20,396
243,53	11,657
243,75	6,107
243,96	3,798
244,18	-3,340
244,39	11,601
244,60	4,280
244,82	6,702
245,03	21,721
245,25	6,858
245,46	25,403
245,68	3,896
245,89	19,134
246,11	12,500
246,32	9,418
246,54	5,991
246,75	15,178
246,97	12,463
247,18	21,847
247,39	4,872
247,61	12,749
247,82	-0,977
248,04	4,239
248,25	6,151
248,47	16,079
248,68	10,682
248,90	4,404
249,11	14,368
249,33	16,648
249,54	8,880
249,75	7,691
249,97	3,033
250,18	11,939
250,40	10,051
250,61	-4,391
250,83	1,721
251,04	1,736
251,25	10,421
251,47	0,911
251,68	8,973
251,90	11,226
252,11	11,861
252,33	2,799
252,54	3,936
252,76	6,641
252,97	2,101
253,18	-2,764
253,40	3,762
253,61	3,901
253,83	11,514
254,04	11,885
254,25	5,840
254,47	3,604
254,68	5,654
254,90	3,290
255,11	4,663
255,33	5,804
255,54	1,695
255,75	5,106
255,97	8,553
256,18	2,603
256,40	5,896
256,61	9,576
256,82	0,555
257,04	13,032
257,25	-1,451
257,47	8,235
257,68	4,925
257,89	10,036
258,11	6,709
258,32	7,028
258,54	1,220
258,75	8,809
258,96	9,182
259,18	2,757
259,39	7,350
259,61	8,773
259,82	6,427
260,03	4,444
260,25	7,937
260,46	3,177
260,68	5,968
260,89	1,645
261,10	4,823
261,32	2,787
261,53	2,581
261,75	5,718
261,96	-0,869
262,17	9,791
262,39	6,924
262,60	4,195
262,81	-2,196
263,03	10,837
263,24	4,595
263,46	-0,979
263,67	-0,723
263,88	4,868
264,10	6,451
264,31	0,378
264,52	5,152
264,74	7,450
264,95	3,532
265,17	7,670
265,38	3,345
265,59	7,750
265,81	7,475
266,02	1,797
266,23	2,766
266,45	10,217
266,66	10,076
266,87	8,541
267,09	2,670
267,30	9,401
267,52	8,929
267,73	1,857
267,94	5,395
268,16	8,848
268,37	5,352
268,58	7,314
268,80	0,878
269,01	3,333
269,22	5,162
269,44	2,768
269,65	3,491
269,86	0,499
270,08	5,578
270,29	1,480
270,50	4,973
270,72	5,889
270,93	4,163
271,14	0,661
271,36	4,296
271,57	4,718
271,78	5,550
272,00	4,189
272,21	7,929
272,42	4,362
272,64	8,250
272,85	1,324
273,06	1,517
273,28	12,006
273,49	5,243
273,70	5,339
273,92	5,030
274,13	6,550
274,34	3,075
274,56	7,220
274,77	1,820
274,98	6,986
275,20	2,785
275,41	7,741
275,62	6,122
275,84	4,390
276,05	10,500
276,26	4,870
276,47	-0,173
276,69	8,539
276,90	4,459
277,11	3,447
277,33	3,577
277,54	5,330
277,75	7,768
277,97	2,371
278,18	-1,592
278,39	6,083
278,61	1,575
278,82	3,788
279,03	3,095
279,24	6,360
279,46	4,725
279,67	7,911
279,88	6,767
280,10	10,708
280,31	0,360
280,52	5,535
280,73	2,377
280,95	5,165
281,16	8,041
281,37	3,228
281,59	4,949
281,80	7,229
282,01	1,745
282,22	2,558
282,44	-0,250
282,65	13,553
282,86	6,907
283,08	4,019
283,29	6,143
283,50	5,677
283,71	6,299
283,93	7,389
284,14	8,095
284,35	1,768
284,56	7,686
284,78	3,000
284,99	5,948
285,20	7,274
285,42	3,376
285,63	2,579
285,84	1,634
286,05	3,259
286,27	3,151
286,48	2,799
286,69	0,997
286,90	2,996
287,12	3,386
287,33	2,267
287,54	0,871
287,75	4,136
287,97	4,901
288,18	2,537
288,39	2,116
288,60	6,674
288,82	5,924
289,03	3,750
289,24	3,112
289,45	7,691
289,67	2,607
289,88	3,099
290,09	3,915
290,30	4,310
290,52	3,172
290,73	1,268
290,94	-0,437
291,15	3,531
291,37	6,381
291,58	3,957
291,79	3,232
292,00	6,318
292,21	3,591
292,43	1,354
292,64	2,202
292,85	2,387
293,06	7,012
293,28	0,502
293,49	2,326
293,70	4,900
293,91	0,261
294,12	5,891
294,34	3,164
294,55	3,878
294,76	4,057
294,97	4,870
295,19	1,828
295,40	5,821
295,61	6,337
295,82	1,652
296,03	5,743
296,25	7,481
296,46	1,307
296,67	0,482
296,88	0,028
297,09	4,057
297,31	2,009
297,52	4,295
297,73	1,966
297,94	7,608
298,15	6,439
298,37	1,891
298,58	4,560
298,79	4,813
299,00	1,742
299,21	2,474
299,43	1,583
299,64	5,155
299,85	5,709
300,06	2,597
300,27	1,433
300,49	8,908
300,70	4,378
300,91	4,635
301,12	1,693
301,33	4,765
301,54	0,226
301,76	4,128
301,97	3,788
302,18	3,510
302,39	7,890
302,60	12,521
302,82	4,325
303,03	8,820
303,24	7,399
303,45	5,291
303,66	4,593
303,87	4,169
304,09	7,824
304,30	3,186
304,51	2,380
304,72	3,305
304,93	5,781
305,14	4,388
305,36	2,052
305,57	2,017
305,78	4,325
305,99	4,304
306,20	5,198
306,41	2,517
306,62	2,466
306,84	1,900
307,05	1,031
307,26	3,364
307,47	7,884
307,68	3,526
307,89	2,909
308,11	4,701
308,32	2,936
308,53	5,377
308,74	0,618
308,95	4,120
309,16	3,018
309,37	5,991
309,59	3,773
309,80	4,011
310,01	4,947
310,22	6,264
310,43	3,254
310,64	1,674
310,85	5,477
311,06	1,313
311,28	2,865
311,49	3,029
311,70	6,724
311,91	4,331
312,12	1,140
312,33	5,524
312,54	4,322
312,75	3,382
312,97	1,709
313,18	4,844
313,39	3,557
313,60	4,800
313,81	1,990
314,02	4,314
314,23	4,677
314,44	1,738
314,65	4,378
314,87	2,335
315,08	2,293
315,29	5,820
315,50	3,563
315,71	5,304
315,92	8,277
316,13	3,699
316,34	4,952
316,55	5,966
316,77	0,911
316,98	3,308
317,19	3,797
317,40	5,461
317,61	7,203
317,82	1,273
318,03	0,734
318,24	3,009
318,45	6,466
318,66	3,332
318,87	1,053
319,09	7,368
319,30	5,436
319,51	4,697
319,72	7,358
319,93	6,187
320,14	7,221
320,35	6,489
320,56	0,450
320,77	0,814
320,98	9,161
321,19	3,760
321,40	4,065
321,62	6,146
321,83	1,590
322,04	3,116
322,25	3,735
322,46	6,124
322,67	6,476
322,88	5,265
323,09	3,629
323,30	7,219
323,51	8,328
323,72	6,935
323,93	1,661
324,14	-0,411
324,35	1,382
324,56	1,595
324,77	1,862
324,99	4,411
325,20	-0,503
325,41	4,654
325,62	3,705
325,83	3,722
326,04	2,072
326,25	4,501
326,46	1,694
326,67	4,691
326,88	3,746
327,09	4,027
327,30	3,975
327,51	4,714
327,72	5,753
327,93	5,090
328,14	0,029
328,35	4,311
328,56	5,080
328,77	3,636
328,98	5,452
329,19	6,128
329,40	4,620
329,61	1,893
329,82	-0,488
330,04	5,485
330,25	3,209
330,46	3,362
330,67	1,659
330,88	3,525
331,09	3,922
331,30	5,600
331,51	4,159
331,72	4,213
331,93	5,729
332,14	2,883
332,35	7,760
332,56	5,060
332,77	5,657
332,98	0,239
333,19	2,999
333,40	5,714
333,61	2,371
333,82	6,702
334,03	5,688
334,24	5,527
334,45	4,507
334,66	4,506
334,87	2,177
335,08	0,427
335,29	1,938
335,50	1,583
335,71	2,704
335,92	3,971
336,13	6,471
336,34	0,271
336,55	3,396
336,76	6,689
336,97	3,310
337,18	1,690
337,39	4,261
337,60	1,772
337,81	3,972
338,02	2,824
338,23	4,280
338,44	4,914
338,65	4,033
338,86	5,015
339,07	2,824
339,28	4,875
339,49	3,889
339,70	-0,249
339,91	1,375
340,11	4,408
340,32	2,798
340,53	2,173
340,74	-0,585
340,95	1,588
341,16	6,553
341,37	3,019
341,58	2,356
341,79	1,074
342,00	7,034
342,21	3,544
342,42	2,887
342,63	6,379
342,84	1,985
343,05	3,881
343,26	7,901
343,47	4,182
343,68	-0,025
343,89	3,430
344,10	4,777
344,31	6,433
344,52	4,237
344,73	1,943
344,94	6,328
345,14	2,567
345,35	3,563
345,56	4,064
345,77	4,745
345,98	3,076
346,19	5,899
346,40	1,980
346,61	0,365
346,82	3,045
347,03	5,155
347,24	4,574
347,45	4,624
347,66	8,234
347,87	1,427
348,08	5,211
348,28	0,602
348,49	4,159
348,70	7,079
348,91	4,238
349,12	-1,480
349,33	17,379
349,54	3,320
349,75	7,676
349,96	4,209
350,17	5,206
350,38	0,442
350,59	4,783
350,80	4,097
351,00	6,253
351,21	8,954
351,42	5,231
351,63	0,116
351,84	3,818
352,05	5,887
352,26	1,600
352,47	3,770
352,68	4,674
352,89	7,801
353,09	7,747
353,30	-0,809
353,51	5,726
353,72	4,815
353,93	6,988
354,14	-0,243
354,35	2,467
354,56	6,044
354,77	3,920
354,98	0,871
355,18	6,028
355,39	8,646
355,60	2,515
355,81	2,995
356,02	1,056
356,23	3,277
356,44	1,593
356,65	5,416
356,85	8,805
357,06	7,985
357,27	5,112
357,48	3,092
357,69	6,016
357,90	5,525
358,11	1,744
358,32	5,075
358,52	7,635
358,73	6,266
358,94	2,547
359,15	5,389
359,36	6,136
359,57	1,672
359,78	3,777
359,98	2,795
360,19	1,931
360,40	3,705
360,61	8,339
360,82	1,564
361,03	8,753
361,24	6,510
361,44	0,881
361,65	1,396
361,86	1,508
362,07	5,045
362,28	-0,562
362,49	4,476
362,70	4,358
362,90	7,128
363,11	0,893
363,32	2,469
363,53	3,552
363,74	7,080
363,95	6,924
364,15	5,277
364,36	9,501
364,57	4,662
364,78	2,351
364,99	3,666
365,20	7,263
365,40	5,518
365,61	2,317
365,82	8,817
366,03	6,586
366,24	3,647
366,45	3,978
366,65	3,062
366,86	4,390
367,07	8,101
367,28	2,982
367,49	4,131
367,69	3,888
367,90	4,403
368,11	3,441
368,32	1,734
368,53	7,903
368,73	4,811
368,94	3,664
369,15	3,540
369,36	4,644
369,57	4,720
369,78	5,342
369,98	7,116
370,19	5,424
370,40	6,010
370,61	3,950
370,82	4,076
371,02	5,753
371,23	6,954
371,44	6,096
371,65	5,780
371,85	7,585
372,06	3,004
372,27	4,314
372,48	4,965
372,69	3,632
372,89	4,826
373,10	5,389
373,31	3,725
373,52	6,586
373,73	8,334
373,93	3,455
374,14	4,106
374,35	9,589
374,56	5,845
374,76	4,236
374,97	3,947
375,18	5,943
375,39	4,273
375,60	4,916
375,80	4,232
376,01	4,132
376,22	5,110
376,43	6,646
376,63	4,322
376,84	1,129
377,05	6,801
377,26	-0,540
377,46	2,555
377,67	5,648
377,88	7,468
378,09	3,623
378,29	-0,484
378,50	5,935
378,71	6,039
378,92	3,021
379,12	4,479
379,33	4,112
379,54	6,261
379,75	4,270
379,95	4,073
380,16	5,515
380,37	8,764
380,58	6,373
380,78	6,917
380,99	2,765
381,20	7,285
381,41	3,692
381,61	6,891
381,82	5,363
382,03	1,638
382,24	5,963
382,44	7,194
382,65	6,129
382,86	6,103
383,06	3,484
383,27	5,189
383,48	5,703
383,69	7,621
383,89	7,370
384,10	5,756
384,31	5,201
384,51	7,613
384,72	7,081
384,93	5,002
385,14	5,168
385,34	7,960
385,55	6,387
385,76	1,239
385,96	8,836
386,17	5,185
386,38	7,874
386,59	1,860
386,79	3,021
387,00	8,688
387,21	6,145
387,41	7,013
387,62	4,177
387,83	11,380
388,03	7,520
388,24	2,535
388,45	8,571
388,66	9,150
388,86	5,910
389,07	6,265
389,28	12,466
389,48	5,890
389,69	5,069
389,90	6,330
390,10	8,502
390,31	8,369
390,52	4,352
390,72	4,180
390,93	7,329
391,14	8,213
391,34	6,218
391,55	11,470
391,76	12,576
391,96	8,345
392,17	6,877
392,38	7,730
392,58	9,669
392,79	9,534
393,00	4,877
393,20	7,888
393,41	9,675
393,62	9,732
393,82	9,098
394,03	5,611
394,24	7,588
394,44	9,717
394,65	12,430
394,86	7,094
395,06	9,759
395,27	6,974
395,48	6,682
395,68	8,873
395,89	9,666
396,10	8,941
396,30	6,970
396,51	6,561
396,72	12,337
396,92	5,976
397,13	8,478
397,34	6,466
397,54	12,853
397,75	10,303
397,95	8,283
398,16	9,212
398,37	9,405
398,57	6,618
398,78	12,607
398,99	12,378
399,19	12,393
399,40	13,709
399,60	8,440
399,81	10,845
400,02	13,717
400,22	11,749
400,43	10,595
400,64	13,653
400,84	12,240
401,05	11,349
401,25	15,673
401,46	14,382
401,67	13,426
401,87	10,824
402,08	9,047
402,29	12,232
402,49	13,407
402,70	15,785
402,90	11,502
403,11	12,850
403,32	14,600
403,52	16,144
403,73	15,067
403,93	16,343
404,14	18,704
404,35	15,917
404,55	12,708
404,76	11,142
404,96	15,244
405,17	20,384
405,38	16,832
405,58	11,701
405,79	18,310
405,99	18,235
406,20	12,526
406,40	13,267
406,61	19,887
406,82	12,968
407,02	18,853
407,23	15,934
407,43	15,822
407,64	17,190
407,85	17,400
408,05	10,858
408,26	24,867
408,46	22,291
408,67	17,273
408,87	17,681
409,08	20,822
409,29	22,962
409,49	20,571
409,70	18,752
409,90	21,530
410,11	21,690
410,31	20,350
410,52	20,584
410,72	20,905
410,93	22,384
411,14	18,445
411,34	19,295
411,55	22,189
411,75	23,972
411,96	21,597
412,16	20,039
412,37	18,974
412,57	20,075
412,78	23,799
412,99	17,641
413,19	22,322
413,40	21,875
413,60	20,308
413,81	20,870
414,01	23,702
414,22	21,056
414,42	21,140
414,63	21,787
414,83	27,533
415,04	27,258
415,24	25,218
415,45	21,939
415,65	23,336
415,86	26,342
416,07	23,181
416,27	26,764
416,48	28,881
416,68	26,311
416,89	24,272
417,09	20,880
417,30	31,203
417,50	23,694
417,71	27,852
417,91	27,624
418,12	26,771
418,32	27,278
418,53	24,860
418,73	26,402
418,94	26,394
419,14	27,786
419,35	21,760
419,55	26,238
419,76	28,222
419,96	27,403
420,17	25,057
420,37	26,414
420,58	28,178
420,78	26,160
420,99	27,702
421,19	28,552
421,40	26,722
421,60	30,761
421,81	26,054
422,01	25,050
422,22	23,804
422,42	31,093
422,63	32,502
422,83	22,146
423,04	31,453
423,24	35,440
423,45	24,969
423,65	28,325
423,86	31,383
424,06	31,242
424,27	30,654
424,47	25,173
424,67	27,651
424,88	24,760
425,08	26,479
425,29	32,591
425,49	28,897
425,70	23,741
425,90	31,376
426,11	30,320
426,31	28,942
426,52	27,769
426,72	31,491
426,93	30,478
427,13	32,312
427,33	29,160
427,54	30,750
427,74	34,711
427,95	35,346
428,15	28,016
428,36	31,265
428,56	30,635
428,77	34,100
428,97	32,955
429,18	33,101
429,38	25,943
429,58	34,081
429,79	31,462
429,99	27,416
430,20	25,177
430,40	37,441
430,61	29,220
430,81	25,672
431,01	33,040
431,22	33,075
431,42	34,109
431,63	28,138
431,83	30,068
432,04	32,055
432,24	35,504
432,44	30,334
432,65	31,986
432,85	27,525
433,06	33,536
433,26	27,490
433,47	28,664
433,67	29,721
433,87	31,161
434,08	29,399
434,28	29,647
434,49	29,527
434,69	31,787
434,89	29,259
435,10	31,397
435,30	36,637
435,51	28,562
435,71	29,049
435,91	27,163
436,12	31,349
436,32	30,001
436,53	31,110
436,73	29,246
436,93	32,103
437,14	32,303
437,34	33,470
437,55	30,887
437,75	31,601
437,95	35,593
438,16	30,774
438,36	32,532
438,57	27,738
438,77	28,008
438,97	35,844
439,18	35,302
439,38	31,638
439,58	34,076
439,79	34,021
439,99	29,033
440,20	38,087
440,40	32,672
440,60	35,268
440,81	34,147
441,01	32,255
441,21	35,039
441,42	34,783
441,62	34,906
441,83	33,519
442,03	35,356
442,23	35,081
442,44	33,596
442,64	34,257
442,84	30,493
443,05	35,522
443,25	30,207
443,45	33,647
443,66	32,698
443,86	31,516
444,06	34,375
444,27	30,608
444,47	33,799
444,67	32,822
444,88	35,765
445,08	35,699
445,28	32,684
445,49	31,706
445,69	32,640
445,90	34,440
446,10	36,518
446,30	32,908
446,51	35,473
446,71	37,548
446,91	39,867
447,12	37,515
447,32	32,413
447,52	34,828
447,72	36,811
447,93	32,273
448,13	31,201
448,33	40,383
448,54	38,473
448,74	28,566
448,94	32,157
449,15	40,591
449,35	36,369
449,55	34,808
449,76	36,522
449,96	36,715
450,16	32,677
450,37	31,927
450,57	34,618
450,77	30,916
450,98	37,285
451,18	35,645
451,38	34,482
451,58	38,748
451,79	33,468
451,99	36,318
452,19	34,216
452,40	35,735
452,60	28,633
452,80	32,550
453,00	34,457
453,21	35,272
453,41	35,946
