Fichero De Datos De SpectraSuite
++++++++++++++++++++++++++++++++++++
Fecha: Wed Apr 22 11:51:48 CEST 2009
Usuario: evoflor
Presente Oscuro Del Espectro: Sí
La Referencia de Presente Del Espectro De: Sí
Muestreados de los componentes de Número de espectros: 1
Espectrómetros: USB4F02353
Tiempo de integración (usec): 500000 (USB4F02353)
Promedio de Espectros Hechos un: 5 (USB4F02353)
El Alisar Del Furgón: 0 (USB4F02353)
Párrafo de de Corregir del la del del de Eléctrica del obscuridad: Sí (USB4F02353)
Estrobo/Lámpara Permitido: No (USB4F02353)
Correct for Detector Non-linearity: No (USB4F02353)
Párrafo de de Corregir del la del del de Externa del luz: No (USB4F02353)
Procesado del espectro de Número de pixeles en: 3648
>>>>> Comienza Data<<<<< Espectral Procesado Del EL
177,79	221,522
178,00	221,522
178,22	221,522
178,44	1611,044
178,66	-238,475
178,88	257,671
179,09	7,255
179,31	209,904
179,53	713,607
179,75	328,298
179,96	621,509
180,18	-360,292
180,40	312,723
180,62	468,156
180,83	-293,409
181,05	-1537,744
181,27	-81095,000
181,49	58,489
181,70	73,058
181,92	717,741
182,14	518,057
182,36	27,352
182,58	-486,950
182,79	1037,031
183,01	22,380
183,23	110,972
183,45	-108,292
183,66	-16,350
183,88	815,853
184,10	-2538,091
184,32	-28,725
184,53	135,397
184,75	-206,252
184,97	27,091
185,18	-77,998
185,40	-571,611
185,62	94,689
185,84	-52,849
186,05	183,299
186,27	-143,274
186,49	2357,500
186,71	44,507
186,92	159,002
187,14	-299,705
187,36	132,741
187,58	69,406
187,79	29,947
188,01	253,315
188,23	-261,065
188,45	40,362
188,66	466,496
188,88	-2587,182
189,10	-1413,950
189,31	-0,162
189,53	139,772
189,75	257,943
189,97	66,135
190,18	-30,494
190,40	651,735
190,62	-54,647
190,83	-168,278
191,05	197,607
191,27	118,557
191,49	412,364
191,70	-485,072
191,92	-260,127
192,14	-69,623
192,35	640,040
192,57	2599,857
192,79	29,111
193,01	189,240
193,22	133,853
193,44	-116,886
193,66	81,050
193,87	25,257
194,09	-117,622
194,31	188,633
194,53	844,021
194,74	82,895
194,96	26,592
195,18	133,931
195,39	-104,736
195,61	-118,986
195,83	-303,467
196,04	145,669
196,26	-122,588
196,48	70,580
196,70	120,070
196,91	110,557
197,13	162,013
197,35	-54,477
197,56	685,743
197,78	1283,545
198,00	453,811
198,21	760,655
198,43	-1429,041
198,65	58,409
198,86	210,773
199,08	141,951
199,30	202,419
199,51	-173,274
199,73	238,937
199,95	202,958
200,16	557,673
200,38	341,195
200,60	142,646
200,81	167,869
201,03	-153,818
201,25	-1521,950
201,46	137,946
201,68	116,301
201,90	2477,159
202,11	-467,538
202,33	224,767
202,55	349,937
202,76	-27,912
202,98	251,202
203,20	86,082
203,41	-568,921
203,63	109,930
203,85	-77495,000
204,06	173,538
204,28	-82,639
204,50	165,166
204,71	267,306
204,93	-589,640
205,15	119,563
205,36	-65,574
205,58	88,282
205,80	-207,862
206,01	100,166
206,23	39,319
206,45	195,105
206,66	191,347
206,88	-125,706
207,10	196,580
207,31	318,404
207,53	275,414
207,75	77,626
207,96	920,858
208,18	-193,677
208,39	29,008
208,61	2985,571
208,83	-334,902
209,04	246,884
209,26	-216,106
209,48	309,732
209,69	82,895
209,91	687,483
210,13	36,097
210,34	76,501
210,56	163,298
210,77	-1439,331
210,99	147,562
211,21	6146,765
211,42	-119,701
211,64	-25,046
211,86	244,673
212,07	197,825
212,29	257,348
212,50	155,965
212,72	28,058
212,94	116,721
213,15	77,043
213,37	100,966
213,58	-127,927
213,80	-2156,964
214,02	10593,824
214,23	262,947
214,45	186,213
214,67	-901,159
214,88	-338,574
215,10	-228,336
215,31	-164,858
215,53	65,670
215,75	228,687
215,96	1632,888
216,18	-556,408
216,39	261,745
216,61	237,980
216,83	257,567
217,04	2670,730
217,26	55,315
217,47	110,956
217,69	260,395
217,91	57,745
218,12	-58595,000
218,34	114,673
218,55	432,347
218,77	103,945
218,99	140,777
219,20	-244,378
219,42	347,248
219,63	-107,665
219,85	-99,993
220,06	287,673
220,28	73,888
220,50	52,459
220,71	53,217
220,93	2871,604
221,14	-2151,950
221,36	-62,132
221,58	-14,900
221,79	270,448
222,01	412,026
222,22	1190,757
222,44	274,101
222,65	86,604
222,87	460,105
223,09	128,726
223,30	42,307
223,52	56,288
223,73	89,274
223,95	20,415
224,16	180,196
224,38	277,476
224,60	106,450
224,81	29,455
225,03	37,770
225,24	113,463
225,46	59,958
225,67	-3,425
225,89	74,339
226,10	336,431
226,32	828,760
226,54	19,947
226,75	-68,010
226,97	88,028
227,18	190,628
227,40	102,220
227,61	73,584
227,83	-21,340
228,04	94,187
228,26	40,951
228,47	22,478
228,69	209,063
228,91	150,243
229,12	49,781
229,34	83,292
229,55	67,512
229,77	1,186
229,98	29,193
230,20	85,173
230,41	20,314
230,63	82,736
230,84	-30,973
231,06	17,319
231,27	27,991
231,49	47,595
231,71	47,424
231,92	45,777
232,14	18,937
232,35	38,906
232,57	41,921
232,78	11,976
233,00	27,486
233,21	29,053
233,43	9,611
233,64	25,220
233,86	43,725
234,07	41,505
234,29	17,978
234,50	7,503
234,72	31,470
234,93	24,257
235,15	18,863
235,36	30,487
235,58	44,453
235,79	40,987
236,01	4,932
236,22	15,834
236,44	46,128
236,65	29,695
236,87	15,494
237,08	22,590
237,30	-14,320
237,51	12,738
237,73	8,622
237,94	3,085
238,16	19,038
238,37	11,243
238,59	9,962
238,80	18,894
239,02	6,132
239,23	15,343
239,45	5,386
239,66	17,587
239,88	41,638
240,09	29,286
240,31	-2,871
240,52	5,279
240,74	16,770
240,95	6,706
241,17	9,838
241,38	8,111
241,60	8,455
241,81	24,180
242,03	9,835
242,24	8,061
242,46	18,522
242,67	7,780
242,89	11,112
243,10	17,643
243,32	17,631
243,53	13,802
243,75	9,193
243,96	6,769
244,18	9,761
244,39	10,280
244,60	5,960
244,82	2,740
245,03	23,878
245,25	11,905
245,46	25,608
245,68	5,669
245,89	19,134
246,11	15,052
246,32	11,141
246,54	6,309
246,75	6,880
246,97	9,247
247,18	16,825
247,39	0,449
247,61	12,507
247,82	3,226
248,04	12,817
248,25	7,729
248,47	7,783
248,68	12,894
248,90	6,721
249,11	8,295
249,33	19,283
249,54	7,819
249,75	7,020
249,97	5,051
250,18	18,116
250,40	18,803
250,61	-3,307
250,83	2,528
251,04	4,617
251,25	6,985
251,47	-1,856
251,68	9,447
251,90	9,079
252,11	10,001
252,33	7,038
252,54	5,106
252,76	5,904
252,97	-1,614
253,18	2,872
253,40	8,152
253,61	3,806
253,83	9,611
254,04	9,039
254,25	10,679
254,47	3,057
254,68	11,170
254,90	3,866
255,11	10,261
255,33	3,795
255,54	5,730
255,75	6,493
255,97	7,977
256,18	6,654
256,40	8,749
256,61	10,391
256,82	1,242
257,04	11,441
257,25	5,078
257,47	5,149
257,68	2,402
257,89	9,428
258,11	9,147
258,32	9,578
258,54	6,917
258,75	14,706
258,96	11,857
259,18	7,710
259,39	3,699
259,61	7,604
259,82	5,426
260,03	4,285
260,25	10,163
260,46	3,771
260,68	3,883
260,89	1,964
261,10	7,859
261,32	4,158
261,53	5,937
261,75	6,876
261,96	1,377
262,17	10,296
262,39	9,354
262,60	0,859
262,81	1,873
263,03	12,948
263,24	4,327
263,46	0,332
263,67	2,720
263,88	8,341
264,10	10,623
264,31	3,530
264,52	7,688
264,74	8,901
264,95	4,708
265,17	7,867
265,38	8,752
265,59	8,708
265,81	11,009
266,02	1,358
266,23	4,300
266,45	11,565
266,66	8,040
266,87	9,021
267,09	5,056
267,30	10,519
267,52	10,443
267,73	5,902
267,94	7,625
268,16	4,892
268,37	5,462
268,58	9,169
268,80	3,696
269,01	3,677
269,22	9,953
269,44	6,695
269,65	6,020
269,86	4,643
270,08	9,461
270,29	3,297
270,50	4,284
270,72	9,353
270,93	3,936
271,14	1,100
271,36	5,727
271,57	8,677
271,78	7,398
272,00	8,976
272,21	9,746
272,42	4,216
272,64	7,491
272,85	3,083
273,06	3,067
273,28	10,583
273,49	9,764
273,70	5,518
273,92	5,698
274,13	9,301
274,34	5,159
274,56	6,966
274,77	2,887
274,98	9,099
275,20	5,031
275,41	8,601
275,62	8,589
275,84	8,601
276,05	12,736
276,26	5,293
276,47	5,202
276,69	7,926
276,90	8,557
277,11	6,682
277,33	4,791
277,54	9,437
277,75	5,088
277,97	2,748
278,18	2,934
278,39	8,999
278,61	4,578
278,82	6,823
279,03	9,956
279,24	5,382
279,46	3,029
279,67	8,107
279,88	3,974
280,10	12,293
280,31	5,120
280,52	6,135
280,73	0,366
280,95	8,248
281,16	10,391
281,37	5,304
281,59	10,217
281,80	12,928
282,01	2,482
282,22	6,203
282,44	2,314
282,65	10,007
282,86	5,982
283,08	7,487
283,29	3,817
283,50	6,800
283,71	7,094
283,93	4,996
284,14	8,791
284,35	4,038
284,56	6,660
284,78	4,407
284,99	5,043
285,20	9,866
285,42	7,144
285,63	6,383
285,84	4,096
286,05	4,962
286,27	4,810
286,48	5,179
286,69	3,511
286,90	2,473
287,12	5,364
287,33	7,191
287,54	2,808
287,75	9,449
287,97	5,143
288,18	5,543
288,39	3,361
288,60	6,473
288,82	4,599
289,03	5,443
289,24	6,278
289,45	7,170
289,67	5,347
289,88	2,843
290,09	8,280
290,30	4,960
290,52	4,174
290,73	4,714
290,94	0,360
291,15	3,854
291,37	8,507
291,58	6,224
291,79	6,141
292,00	7,064
292,21	5,110
292,43	3,516
292,64	2,614
292,85	3,136
293,06	9,260
293,28	3,236
293,49	3,381
293,70	11,910
293,91	12,151
294,12	5,711
294,34	7,866
294,55	4,117
294,76	4,294
294,97	7,280
295,19	1,774
295,40	5,499
295,61	3,590
295,82	4,410
296,03	5,590
296,25	8,017
296,46	2,482
296,67	2,749
296,88	1,243
297,09	7,570
297,31	3,813
297,52	4,219
297,73	4,323
297,94	7,633
298,15	5,768
298,37	5,344
298,58	5,311
298,79	5,701
299,00	4,061
299,21	5,123
299,43	2,580
299,64	9,699
299,85	8,281
300,06	3,422
300,27	3,169
300,49	10,566
300,70	6,449
300,91	5,297
301,12	4,651
301,33	6,645
301,54	4,967
301,76	7,716
301,97	0,396
302,18	6,222
302,39	6,392
302,60	13,143
302,82	4,448
303,03	10,145
303,24	7,523
303,45	5,267
303,66	6,388
303,87	4,546
304,09	8,015
304,30	3,502
304,51	5,165
304,72	2,830
304,93	7,978
305,14	5,365
305,36	4,931
305,57	2,381
305,78	5,595
305,99	4,585
306,20	5,003
306,41	3,835
306,62	1,570
306,84	5,904
307,05	2,621
307,26	6,347
307,47	9,824
307,68	5,955
307,89	5,204
308,11	6,174
308,32	5,056
308,53	6,543
308,74	3,474
308,95	5,849
309,16	8,269
309,37	8,334
309,59	1,689
309,80	3,813
310,01	7,769
310,22	6,800
310,43	4,197
310,64	4,896
310,85	5,769
311,06	6,086
311,28	6,805
311,49	6,708
311,70	7,836
311,91	5,341
312,12	2,419
312,33	5,595
312,54	7,400
312,75	2,971
312,97	5,024
313,18	5,861
313,39	2,072
313,60	5,640
313,81	6,644
314,02	5,976
314,23	7,860
314,44	2,485
314,65	5,006
314,87	2,886
315,08	3,727
315,29	7,310
315,50	6,356
315,71	8,062
315,92	9,251
316,13	6,393
316,34	3,841
316,55	6,014
316,77	1,895
316,98	4,352
317,19	4,377
317,40	5,167
317,61	6,099
317,82	4,244
318,03	3,365
318,24	3,184
318,45	8,887
318,66	5,665
318,87	2,690
319,09	7,151
319,30	5,510
319,51	8,383
319,72	7,234
319,93	4,367
320,14	7,892
320,35	8,283
320,56	4,049
320,77	3,977
320,98	10,407
321,19	7,517
321,40	4,479
321,62	7,857
321,83	4,869
322,04	6,043
322,25	4,701
322,46	8,615
322,67	6,149
322,88	4,900
323,09	4,410
323,30	7,009
323,51	7,458
323,72	7,490
323,93	3,701
324,14	2,822
324,35	0,539
324,56	3,643
324,77	5,361
324,99	3,358
325,20	2,280
325,41	5,033
325,62	5,156
325,83	4,190
326,04	5,235
326,25	5,578
326,46	2,658
326,67	5,839
326,88	5,033
327,09	5,847
327,30	3,855
327,51	4,567
327,72	5,729
327,93	5,212
328,14	3,013
328,35	5,647
328,56	6,256
328,77	2,657
328,98	7,149
329,19	3,652
329,40	5,209
329,61	5,448
329,82	2,610
330,04	5,564
330,25	2,473
330,46	7,884
330,67	1,659
330,88	5,090
331,09	4,107
331,30	4,777
331,51	6,461
331,72	6,413
331,93	8,051
332,14	4,348
332,35	7,455
332,56	5,566
332,77	9,022
332,98	0,607
333,19	3,840
333,40	7,036
333,61	6,159
333,82	8,635
334,03	6,088
334,24	6,521
334,45	6,035
334,66	6,939
334,87	4,828
335,08	3,103
335,29	4,164
335,50	5,518
335,71	1,497
335,92	8,389
336,13	4,847
336,34	2,500
336,55	4,536
336,76	8,679
336,97	5,784
337,18	5,487
337,39	3,425
337,60	8,585
337,81	6,508
338,02	3,481
338,23	4,091
338,44	3,627
338,65	5,823
338,86	7,454
339,07	3,463
339,28	6,368
339,49	5,930
339,70	3,948
339,91	4,329
340,11	9,082
340,32	4,453
340,53	4,719
340,74	3,933
340,95	3,746
341,16	4,073
341,37	4,268
341,58	2,909
341,79	5,661
342,00	2,066
342,21	4,933
342,42	4,139
342,63	8,096
342,84	2,664
343,05	5,453
343,26	7,314
343,47	6,553
343,68	4,318
343,89	4,828
344,10	3,972
344,31	9,305
344,52	4,989
344,73	2,969
344,94	4,136
345,14	6,758
345,35	8,163
345,56	4,699
345,77	4,857
345,98	6,505
346,19	3,877
346,40	4,730
346,61	5,436
346,82	5,354
347,03	5,296
347,24	8,051
347,45	2,243
347,66	7,308
347,87	3,548
348,08	6,711
348,28	3,824
348,49	5,969
348,70	8,654
348,91	7,872
349,12	2,085
349,33	18,484
349,54	5,949
349,75	6,588
349,96	6,202
350,17	3,176
350,38	5,119
350,59	5,594
350,80	1,519
351,00	8,615
351,21	6,533
351,42	5,515
351,63	0,369
351,84	5,937
352,05	8,144
352,26	4,346
352,47	7,332
352,68	6,696
352,89	9,023
353,09	5,593
353,30	2,561
353,51	1,591
353,72	12,287
353,93	7,543
354,14	4,903
354,35	3,669
354,56	7,298
354,77	4,928
354,98	3,502
355,18	7,967
355,39	8,788
355,60	4,102
355,81	5,782
356,02	6,622
356,23	8,201
356,44	3,152
356,65	6,134
356,85	9,740
357,06	9,384
357,27	5,939
357,48	5,191
357,69	4,601
357,90	7,922
358,11	1,541
358,32	6,328
358,52	6,402
358,73	4,819
358,94	6,317
359,15	4,275
359,36	5,066
359,57	4,403
359,78	5,572
359,98	5,467
360,19	2,533
360,40	2,265
360,61	10,322
360,82	5,297
361,03	6,684
361,24	7,871
361,44	3,331
361,65	5,725
361,86	6,205
362,07	5,414
362,28	2,742
362,49	2,133
362,70	8,564
362,90	5,709
363,11	1,071
363,32	5,489
363,53	5,428
363,74	10,413
363,95	7,428
364,15	8,283
364,36	7,455
364,57	6,936
364,78	2,975
364,99	7,504
365,20	8,596
365,40	10,172
365,61	5,353
365,82	8,460
366,03	5,113
366,24	6,944
366,45	6,473
366,65	5,944
366,86	5,547
367,07	6,385
367,28	5,175
367,49	7,901
367,69	9,068
367,90	3,517
368,11	3,670
368,32	2,867
368,53	7,281
368,73	7,450
368,94	1,833
369,15	3,662
369,36	8,476
369,57	7,823
369,78	3,906
369,98	6,393
370,19	9,643
370,40	5,152
370,61	2,583
370,82	1,949
371,02	7,835
371,23	9,329
371,44	6,664
371,65	5,436
371,85	8,304
372,06	5,722
372,27	9,486
372,48	4,296
372,69	4,570
372,89	2,708
373,10	3,809
373,31	4,858
373,52	4,744
373,73	9,945
373,93	4,554
374,14	6,330
374,35	6,414
374,56	8,431
374,76	5,107
374,97	2,320
375,18	4,937
375,39	8,203
375,60	9,453
375,80	6,036
376,01	6,411
376,22	5,822
376,43	6,885
376,63	5,873
376,84	3,473
377,05	5,277
377,26	2,050
377,46	3,688
377,67	4,462
377,88	8,378
378,09	5,985
378,29	2,475
378,50	7,506
378,71	8,223
378,92	2,447
379,12	5,424
379,33	5,029
379,54	5,981
379,75	7,971
379,95	7,149
380,16	8,117
380,37	5,446
380,58	5,967
380,78	9,222
380,99	5,716
381,20	5,899
381,41	6,872
381,61	7,724
381,82	5,748
382,03	7,065
382,24	8,014
382,44	7,637
382,65	5,853
382,86	6,633
383,06	5,108
383,27	6,272
383,48	5,185
383,69	7,789
383,89	4,746
384,10	6,024
384,31	10,300
384,51	13,607
384,72	8,898
384,93	5,594
385,14	9,422
385,34	7,062
385,55	6,747
385,76	5,680
385,96	9,420
386,17	8,816
386,38	12,243
386,59	11,075
386,79	9,548
387,00	8,721
387,21	13,589
387,41	12,988
387,62	7,005
387,83	11,078
388,03	10,233
388,24	6,666
388,45	7,231
388,66	10,528
388,86	11,346
389,07	6,637
389,28	13,726
389,48	11,306
389,69	7,782
389,90	4,822
390,10	12,544
390,31	12,268
390,52	6,808
390,72	10,575
390,93	11,373
391,14	9,932
391,34	9,293
391,55	11,283
391,76	17,011
391,96	11,994
392,17	9,531
392,38	12,975
392,58	13,116
392,79	12,238
393,00	11,085
393,20	9,115
393,41	9,576
393,62	10,191
393,82	9,894
394,03	13,822
394,24	11,413
394,44	16,112
394,65	17,427
394,86	14,538
395,06	16,095
395,27	11,890
395,48	14,001
395,68	16,521
395,89	15,693
396,10	15,506
396,30	11,720
396,51	14,631
396,72	21,078
396,92	12,521
397,13	15,718
397,34	11,829
397,54	18,000
397,75	17,577
397,95	13,368
398,16	16,547
398,37	17,021
398,57	15,328
398,78	18,829
398,99	20,863
399,19	21,669
399,40	23,888
399,60	16,510
399,81	22,920
400,02	20,186
400,22	20,933
400,43	18,464
400,64	21,709
400,84	17,206
401,05	20,625
401,25	21,763
401,46	19,231
401,67	21,765
401,87	22,573
402,08	19,348
402,29	19,589
402,49	23,705
402,70	25,414
402,90	22,999
403,11	23,692
403,32	23,084
403,52	21,760
403,73	23,340
403,93	24,271
404,14	31,645
404,35	26,548
404,55	20,461
404,76	26,804
404,96	27,179
405,17	26,118
405,38	30,422
405,58	22,805
405,79	29,473
405,99	27,954
406,20	26,518
406,40	21,790
406,61	29,154
406,82	27,347
407,02	29,182
407,23	25,408
407,43	25,980
407,64	27,574
407,85	28,474
408,05	25,013
408,26	37,246
408,46	32,894
408,67	24,322
408,87	26,698
409,08	32,552
409,29	37,673
409,49	35,892
409,70	29,649
409,90	34,000
410,11	33,066
410,31	32,253
410,52	34,117
410,72	32,661
410,93	33,488
411,14	33,168
411,34	30,446
411,55	35,799
411,75	33,506
411,96	35,944
412,16	35,650
412,37	30,720
412,57	33,539
412,78	34,007
412,99	31,800
413,19	38,550
413,40	37,128
413,60	31,236
413,81	33,152
414,01	34,371
414,22	32,256
414,42	34,673
414,63	34,471
414,83	36,276
415,04	42,660
415,24	39,451
415,45	36,830
415,65	32,617
415,86	42,651
416,07	33,946
416,27	35,756
416,48	41,684
416,68	39,375
416,89	35,269
417,09	38,196
417,30	45,722
417,50	37,592
417,71	40,553
417,91	41,178
418,12	40,191
418,32	40,752
418,53	36,013
418,73	38,195
418,94	37,090
419,14	39,890
419,35	35,973
419,55	41,106
419,76	42,331
419,96	41,139
420,17	40,102
420,37	40,665
420,58	45,707
420,78	43,076
420,99	39,501
421,19	41,240
421,40	40,065
421,60	45,437
421,81	37,803
422,01	43,889
422,22	42,443
422,42	42,909
422,63	45,348
422,83	37,278
423,04	47,350
423,24	45,810
423,45	36,962
423,65	47,436
423,86	46,803
424,06	41,550
424,27	39,864
424,47	40,386
424,67	41,550
424,88	44,551
425,08	41,269
425,29	49,436
425,49	41,178
425,70	43,232
425,90	47,261
426,11	43,078
426,31	41,771
426,52	46,446
426,72	40,397
426,93	40,624
427,13	47,947
427,33	45,781
427,54	44,462
427,74	50,586
427,95	50,508
428,15	43,054
428,36	42,493
428,56	41,207
428,77	44,439
428,97	46,778
429,18	42,195
429,38	42,566
429,58	48,926
429,79	45,621
429,99	42,902
430,20	37,678
430,40	46,800
430,61	43,610
430,81	45,416
431,01	49,576
431,22	51,295
431,42	49,386
431,63	39,651
431,83	44,264
432,04	40,535
432,24	48,847
432,44	45,074
432,65	41,871
432,85	44,385
433,06	44,680
433,26	43,637
433,47	41,499
433,67	46,914
433,87	41,840
434,08	41,936
434,28	42,263
434,49	42,834
434,69	47,695
434,89	41,879
435,10	42,512
435,30	46,728
435,51	39,902
435,71	41,336
435,91	40,244
436,12	45,273
436,32	39,947
436,53	42,196
436,73	45,002
436,93	45,560
437,14	43,860
437,34	46,110
437,55	45,525
437,75	46,555
437,95	49,442
438,16	44,272
438,36	44,380
438,57	41,150
438,77	41,346
438,97	44,341
439,18	46,651
439,38	44,214
439,58	43,848
439,79	47,174
439,99	46,634
440,20	51,855
440,40	48,423
440,60	48,017
440,81	52,965
441,01	49,988
441,21	49,952
441,42	49,590
441,62	48,414
441,83	45,051
442,03	50,293
442,23	50,366
442,44	47,913
442,64	51,731
442,84	42,410
443,05	47,385
443,25	42,686
443,45	47,532
443,66	45,098
443,86	47,670
444,06	42,382
444,27	44,651
444,47	47,918
444,67	42,350
444,88	48,428
445,08	48,272
445,28	47,446
445,49	45,912
445,69	45,171
445,90	48,562
446,10	51,808
446,30	44,539
446,51	49,241
446,71	56,889
446,91	48,896
447,12	50,743
447,32	39,767
447,52	46,919
447,72	51,192
447,93	46,898
448,13	43,235
448,33	50,540
448,54	51,748
448,74	41,071
448,94	49,164
449,15	50,819
449,35	55,626
449,55	48,774
449,76	51,090
449,96	48,050
450,16	50,637
450,37	44,759
450,57	50,802
450,77	47,762
450,98	47,585
451,18	53,089
451,38	48,425
451,58	48,011
451,79	49,464
451,99	49,533
452,19	51,112
452,40	50,388
452,60	45,629
452,80	40,855
