Fichero De Datos De SpectraSuite
++++++++++++++++++++++++++++++++++++
Fecha: Wed Apr 22 11:54:58 CEST 2009
Usuario: evoflor
Presente Oscuro Del Espectro: Sí
La Referencia de Presente Del Espectro De: Sí
Muestreados de los componentes de Número de espectros: 1
Espectrómetros: USB4F02353
Tiempo de integración (usec): 500000 (USB4F02353)
Promedio de Espectros Hechos un: 5 (USB4F02353)
El Alisar Del Furgón: 0 (USB4F02353)
Párrafo de de Corregir del la del del de Eléctrica del obscuridad: Sí (USB4F02353)
Estrobo/Lámpara Permitido: No (USB4F02353)
Correct for Detector Non-linearity: No (USB4F02353)
Párrafo de de Corregir del la del del de Externa del luz: No (USB4F02353)
Procesado del espectro de Número de pixeles en: 3648
>>>>> Comienza Data<<<<< Espectral Procesado Del EL
177,79	193,356
178,00	193,356
178,22	193,356
178,44	1174,615
178,66	-185,650
178,88	178,143
179,09	-272,809
179,31	122,452
179,53	577,430
179,75	22,319
179,96	513,879
180,18	-186,185
180,40	376,146
180,62	241,671
180,83	-345,000
181,05	-683,049
181,27	-15510,000
181,49	-23,935
181,70	-9,577
181,92	416,802
182,14	418,102
182,36	-14,168
182,58	-533,100
182,79	724,152
183,01	-43,554
183,23	137,849
183,45	-324,646
183,66	-427,035
183,88	345,353
184,10	-3194,727
184,32	120,817
184,53	282,529
184,75	-55,116
184,97	3,011
185,18	-272,763
185,40	-714,952
185,62	128,786
185,84	41,725
186,05	124,817
186,27	-125,660
186,49	1565,769
186,71	116,232
186,92	163,495
187,14	-114,424
187,36	97,096
187,58	81,080
187,79	-112,477
188,01	200,634
188,23	-335,540
188,45	2,556
188,66	233,973
188,88	-2262,000
189,10	-1784,100
189,31	24,215
189,53	120,274
189,75	483,205
189,97	104,654
190,18	97,468
190,40	461,824
190,62	155,894
190,83	-107,218
191,05	134,833
191,27	198,600
191,49	450,520
191,70	-70,240
191,92	-566,186
192,14	-5,782
192,35	497,109
192,57	2577,429
192,79	-57,366
193,01	191,607
193,22	172,943
193,44	-140,119
193,66	103,519
193,87	29,358
194,09	-0,229
194,31	154,686
194,53	1165,804
194,74	85,984
194,96	8,325
195,18	154,809
195,39	-458,865
195,61	-100,927
195,83	-291,978
196,04	153,535
196,26	-258,844
196,48	-31,683
196,70	376,163
196,91	197,377
197,13	114,456
197,35	-25,447
197,56	507,771
197,78	1532,910
198,00	171,399
198,21	433,544
198,43	-1194,244
198,65	159,487
198,86	272,698
199,08	-138,000
199,30	271,883
199,51	-205,896
199,73	326,405
199,95	379,233
200,16	783,115
200,38	216,857
200,60	88,887
200,81	339,636
201,03	186,440
201,25	-1487,100
201,46	179,327
201,68	55,335
201,90	3093,409
202,11	-193,168
202,33	161,957
202,55	767,625
202,76	-138,227
202,98	198,293
203,20	-169,760
203,41	-545,842
203,63	91,587
203,85	-42510,000
204,06	117,425
204,28	-160,988
204,50	235,522
204,71	331,113
204,93	-77,520
205,15	8,765
205,36	-150,115
205,58	78,138
205,80	-59,946
206,01	71,231
206,23	129,902
206,45	186,587
206,66	96,549
206,88	-23,042
207,10	215,250
207,31	252,993
207,53	250,029
207,75	22,859
207,96	794,104
208,18	-255,307
208,39	117,901
208,61	2217,429
208,83	-348,303
209,04	380,107
209,26	-200,046
209,48	410,159
209,69	191,952
209,91	639,223
210,13	41,520
210,34	54,988
210,56	202,660
210,77	-1418,976
210,99	138,739
211,21	5730,000
211,42	-119,869
211,64	-1,923
211,86	228,658
212,07	260,419
212,29	208,649
212,50	129,167
212,72	59,654
212,94	105,788
213,15	160,433
213,37	143,169
213,58	-144,146
213,80	-2064,643
214,02	6577,059
214,23	297,646
214,45	511,180
214,67	-1023,293
214,88	-178,893
215,10	-250,722
215,31	63,341
215,53	-114,068
215,75	211,670
215,96	1208,758
216,18	218,451
216,39	238,122
216,61	324,694
216,83	366,562
217,04	1205,730
217,26	3,242
217,47	214,728
217,69	311,580
217,91	198,943
218,12	-98310,000
218,34	167,443
218,55	380,133
218,77	-4,459
218,99	139,990
219,20	-110,976
219,42	332,332
219,63	24,499
219,85	-136,352
220,06	187,731
220,28	200,386
220,50	125,424
220,71	97,477
220,93	2330,377
221,14	-1586,100
221,36	3,040
221,58	7,800
221,79	-73,584
222,01	847,500
222,22	936,908
222,44	-614,494
222,65	146,015
222,87	316,154
223,09	129,427
223,30	111,998
223,52	65,180
223,73	54,016
223,95	75,085
224,16	161,876
224,38	456,896
224,60	114,238
224,81	171,717
225,03	144,945
225,24	234,861
225,46	10,814
225,67	7,162
225,89	111,008
226,10	453,343
226,32	1124,880
226,54	-14,546
226,75	-4,920
226,97	138,463
227,18	144,791
227,40	51,925
227,61	89,687
227,83	57,397
228,04	81,585
228,26	118,567
228,47	49,772
228,69	114,522
228,91	150,357
229,12	112,489
229,34	41,549
229,55	58,643
229,77	23,763
229,98	-16,400
230,20	49,591
230,41	6,691
230,63	58,051
230,84	50,249
231,06	5,719
231,27	62,611
231,49	48,861
231,71	-0,269
231,92	1,870
232,14	4,288
232,35	44,769
232,57	44,735
232,78	10,222
233,00	42,701
233,21	45,432
233,43	-19,358
233,64	12,032
233,86	19,541
234,07	16,599
234,29	24,425
234,50	27,632
234,72	56,910
234,93	9,701
235,15	13,813
235,36	32,992
235,58	30,581
235,79	48,392
236,01	22,501
236,22	12,659
236,44	40,895
236,65	15,779
236,87	26,825
237,08	3,891
237,30	1,989
237,51	37,087
237,73	-3,794
237,94	9,111
238,16	19,057
238,37	10,215
238,59	5,005
238,80	8,832
239,02	5,004
239,23	9,762
239,45	-5,345
239,66	23,665
239,88	31,574
240,09	25,332
240,31	8,777
240,52	12,188
240,74	10,080
240,95	8,394
241,17	13,128
241,38	5,327
241,60	15,963
241,81	18,849
242,03	1,597
242,24	5,494
242,46	15,483
242,67	8,575
242,89	3,157
243,10	20,918
243,32	17,571
243,53	16,418
243,75	11,995
243,96	5,590
244,18	14,065
244,39	6,547
244,60	7,020
244,82	11,219
245,03	18,807
245,25	10,183
245,46	21,510
245,68	3,222
245,89	19,919
246,11	10,628
246,32	14,728
246,54	6,826
246,75	16,424
246,97	11,769
247,18	14,837
247,39	5,448
247,61	1,343
247,82	3,015
248,04	6,334
248,25	6,891
248,47	9,576
248,68	6,761
248,90	2,094
249,11	6,243
249,33	15,620
249,54	8,105
249,75	12,287
249,97	3,358
250,18	10,731
250,40	16,472
250,61	-0,158
250,83	-2,309
251,04	3,587
251,25	10,046
251,47	1,471
251,68	13,621
251,90	11,232
252,11	9,123
252,33	7,863
252,54	6,703
252,76	7,292
252,97	5,964
253,18	1,129
253,40	3,621
253,61	0,819
253,83	7,993
254,04	5,341
254,25	5,303
254,47	0,238
254,68	3,629
254,90	10,486
255,11	8,515
255,33	6,221
255,54	6,252
255,75	7,930
255,97	5,059
256,18	-0,210
256,40	2,956
256,61	9,324
256,82	0,102
257,04	10,286
257,25	3,957
257,47	6,923
257,68	5,477
257,89	7,957
258,11	10,290
258,32	4,065
258,54	3,110
258,75	7,887
258,96	10,380
259,18	4,328
259,39	3,704
259,61	9,989
259,82	5,765
260,03	7,540
260,25	4,704
260,46	3,380
260,68	5,056
260,89	6,570
261,10	4,666
261,32	3,397
261,53	3,522
261,75	9,119
261,96	-0,697
262,17	11,349
262,39	11,336
262,60	3,468
262,81	-0,489
263,03	10,802
263,24	9,114
263,46	-0,072
263,67	6,551
263,88	2,421
264,10	5,470
264,31	-1,069
264,52	7,996
264,74	7,455
264,95	6,951
265,17	9,057
265,38	7,286
265,59	8,943
265,81	8,002
266,02	0,368
266,23	2,042
266,45	10,491
266,66	8,080
266,87	10,135
267,09	3,152
267,30	6,870
267,52	12,878
267,73	2,542
267,94	3,131
268,16	8,069
268,37	4,917
268,58	9,545
268,80	4,098
269,01	2,840
269,22	6,519
269,44	6,409
269,65	4,262
269,86	0,009
270,08	7,200
270,29	0,577
270,50	7,190
270,72	6,787
270,93	5,415
271,14	1,470
271,36	4,668
271,57	4,119
271,78	3,140
272,00	6,817
272,21	8,333
272,42	7,670
272,64	5,976
272,85	0,962
273,06	2,580
273,28	9,443
273,49	4,135
273,70	6,776
273,92	5,914
274,13	8,539
274,34	2,605
274,56	4,758
274,77	2,536
274,98	7,896
275,20	6,140
275,41	3,722
275,62	2,615
275,84	5,938
276,05	11,468
276,26	4,769
276,47	0,963
276,69	10,812
276,90	7,172
277,11	5,852
277,33	2,228
277,54	5,856
277,75	3,753
277,97	4,262
278,18	4,111
278,39	6,193
278,61	5,316
278,82	6,384
279,03	6,224
279,24	5,190
279,46	7,588
279,67	10,343
279,88	1,993
280,10	8,069
280,31	0,331
280,52	3,484
280,73	2,645
280,95	7,180
281,16	8,394
281,37	2,594
281,59	9,607
281,80	8,852
282,01	2,319
282,22	2,001
282,44	0,925
282,65	8,365
282,86	8,575
283,08	3,780
283,29	5,279
283,50	4,115
283,71	6,762
283,93	6,093
284,14	7,664
284,35	5,365
284,56	4,269
284,78	3,004
284,99	6,012
285,20	8,768
285,42	6,206
285,63	4,979
285,84	1,700
286,05	4,571
286,27	7,189
286,48	4,528
286,69	3,807
286,90	5,411
287,12	2,530
287,33	3,006
287,54	2,494
287,75	8,390
287,97	4,958
288,18	4,823
288,39	1,628
288,60	7,021
288,82	2,516
289,03	2,754
289,24	3,375
289,45	7,585
289,67	5,597
289,88	2,194
290,09	7,660
290,30	5,965
290,52	4,178
290,73	1,702
290,94	1,271
291,15	4,908
291,37	5,981
291,58	3,601
291,79	1,928
292,00	5,895
292,21	7,026
292,43	4,924
292,64	3,690
292,85	3,274
293,06	7,412
293,28	2,030
293,49	3,200
293,70	6,243
293,91	2,823
294,12	3,415
294,34	4,160
294,55	3,218
294,76	3,770
294,97	6,777
295,19	0,650
295,40	5,453
295,61	5,526
295,82	2,068
296,03	5,389
296,25	4,320
296,46	3,840
296,67	2,274
296,88	0,537
297,09	6,959
297,31	3,968
297,52	4,778
297,73	0,079
297,94	7,391
298,15	3,684
298,37	4,652
298,58	5,164
298,79	8,245
299,00	4,594
299,21	4,218
299,43	4,115
299,64	6,664
299,85	5,051
300,06	2,765
300,27	2,381
300,49	9,008
300,70	5,572
300,91	4,638
301,12	2,492
301,33	8,187
301,54	4,523
301,76	7,011
301,97	4,578
302,18	3,265
302,39	7,214
302,60	13,027
302,82	2,683
303,03	9,642
303,24	4,370
303,45	5,751
303,66	3,772
303,87	4,172
304,09	5,292
304,30	2,800
304,51	4,496
304,72	3,403
304,93	6,426
305,14	3,414
305,36	2,006
305,57	5,077
305,78	2,741
305,99	5,670
306,20	3,762
306,41	2,447
306,62	3,961
306,84	5,252
307,05	1,058
307,26	5,498
307,47	6,389
307,68	4,403
307,89	2,790
308,11	7,088
308,32	4,566
308,53	3,573
308,74	2,025
308,95	3,977
309,16	7,016
309,37	8,148
309,59	2,536
309,80	5,795
310,01	6,060
310,22	5,569
310,43	2,032
310,64	4,947
310,85	4,580
311,06	3,715
311,28	5,917
311,49	3,177
311,70	7,574
311,91	2,458
312,12	3,251
312,33	5,097
312,54	5,279
312,75	3,337
312,97	2,306
313,18	4,436
313,39	3,828
313,60	4,467
313,81	6,259
314,02	5,834
314,23	4,108
314,44	1,982
314,65	3,293
314,87	3,291
315,08	5,970
315,29	5,487
315,50	6,112
315,71	4,875
315,92	6,017
316,13	5,418
316,34	5,486
316,55	3,745
316,77	2,478
316,98	4,628
317,19	2,519
317,40	5,268
317,61	6,830
317,82	3,025
318,03	1,858
318,24	4,214
318,45	5,210
318,66	5,158
318,87	0,885
319,09	5,319
319,30	6,903
319,51	6,469
319,72	3,423
319,93	5,692
320,14	5,652
320,35	3,133
320,56	1,769
320,77	3,142
320,98	10,004
321,19	5,282
321,40	4,120
321,62	6,434
321,83	2,572
322,04	4,264
322,25	3,523
322,46	8,909
322,67	5,228
322,88	5,555
323,09	1,875
323,30	5,228
323,51	7,514
323,72	8,325
323,93	0,363
324,14	2,825
324,35	1,283
324,56	0,259
324,77	4,483
324,99	4,488
325,20	0,866
325,41	4,230
325,62	5,571
325,83	2,625
326,04	3,977
326,25	4,122
326,46	1,486
326,67	4,577
326,88	5,247
327,09	2,736
327,30	2,614
327,51	6,620
327,72	4,845
327,93	5,240
328,14	0,212
328,35	3,256
328,56	5,359
328,77	3,613
328,98	7,381
329,19	6,053
329,40	6,213
329,61	3,132
329,82	2,458
330,04	2,721
330,25	4,422
330,46	2,582
330,67	3,680
330,88	1,102
331,09	3,554
331,30	3,826
331,51	3,977
331,72	5,438
331,93	7,579
332,14	2,706
332,35	5,906
332,56	4,345
332,77	6,738
332,98	1,740
333,19	3,449
333,40	5,400
333,61	4,347
333,82	6,963
334,03	8,253
334,24	6,001
334,45	6,065
334,66	8,624
334,87	6,024
335,08	3,636
335,29	4,061
335,50	2,202
335,71	2,917
335,92	5,668
336,13	7,024
336,34	3,308
336,55	5,971
336,76	5,658
336,97	4,980
337,18	3,091
337,39	4,787
337,60	3,465
337,81	3,094
338,02	4,223
338,23	3,796
338,44	5,600
338,65	3,878
338,86	5,930
339,07	4,132
339,28	8,126
339,49	3,809
339,70	2,049
339,91	3,910
340,11	6,695
340,32	3,616
340,53	2,177
340,74	0,113
340,95	2,028
341,16	4,670
341,37	2,071
341,58	1,086
341,79	3,357
342,00	4,350
342,21	1,186
342,42	2,102
342,63	3,331
342,84	-0,163
343,05	4,616
343,26	6,703
343,47	3,056
343,68	3,306
343,89	3,735
344,10	4,512
344,31	5,451
344,52	5,411
344,73	2,446
344,94	3,613
345,14	4,832
345,35	7,803
345,56	5,393
345,77	3,121
345,98	3,381
346,19	5,247
346,40	3,988
346,61	2,152
346,82	4,259
347,03	3,216
347,24	3,568
347,45	3,143
347,66	7,938
347,87	3,755
348,08	7,055
348,28	0,178
348,49	3,315
348,70	4,622
348,91	4,756
349,12	1,404
349,33	14,850
349,54	4,011
349,75	5,990
349,96	4,239
350,17	4,695
350,38	2,608
350,59	6,612
350,80	3,797
351,00	5,364
351,21	7,887
351,42	5,149
351,63	0,626
351,84	4,700
352,05	6,976
352,26	5,022
352,47	4,708
352,68	5,219
352,89	8,736
353,09	7,926
353,30	-0,896
353,51	5,819
353,72	8,615
353,93	8,189
354,14	2,411
354,35	4,064
354,56	6,252
354,77	4,270
354,98	3,446
355,18	8,029
355,39	8,678
355,60	4,568
355,81	3,087
356,02	6,385
356,23	4,178
356,44	3,245
356,65	6,526
356,85	9,744
357,06	8,554
357,27	7,113
357,48	1,986
357,69	3,986
357,90	5,468
358,11	0,181
358,32	3,169
358,52	5,466
358,73	3,995
358,94	2,969
359,15	7,167
359,36	7,602
359,57	5,499
359,78	6,063
359,98	1,328
360,19	0,760
360,40	5,324
360,61	5,439
360,82	3,557
361,03	7,367
361,24	6,100
361,44	3,758
361,65	3,004
361,86	3,415
362,07	4,096
362,28	1,912
362,49	2,137
362,70	4,954
362,90	6,138
363,11	2,618
363,32	3,274
363,53	5,432
363,74	6,030
363,95	5,145
364,15	5,841
364,36	8,511
364,57	4,553
364,78	6,367
364,99	2,322
365,20	7,563
365,40	5,225
365,61	3,072
365,82	6,773
366,03	7,131
366,24	5,039
366,45	3,082
366,65	2,478
366,86	3,906
367,07	2,837
367,28	5,797
367,49	3,897
367,69	6,746
367,90	4,957
368,11	2,470
368,32	3,752
368,53	6,309
368,73	5,079
368,94	1,867
369,15	4,855
369,36	6,564
369,57	3,933
369,78	3,504
369,98	6,819
370,19	9,559
370,40	4,788
370,61	4,078
370,82	3,016
371,02	8,460
371,23	6,552
371,44	5,058
371,65	5,596
371,85	7,739
372,06	2,945
372,27	4,656
372,48	4,695
372,69	4,793
372,89	2,875
373,10	5,329
373,31	3,276
373,52	8,190
373,73	8,462
373,93	5,597
374,14	3,828
374,35	5,288
374,56	6,366
374,76	5,351
374,97	3,982
375,18	4,502
375,39	5,422
375,60	7,767
375,80	4,578
376,01	7,987
376,22	6,971
376,43	3,165
376,63	5,482
376,84	4,821
377,05	7,332
377,26	0,583
377,46	1,551
377,67	6,326
377,88	6,296
378,09	3,903
378,29	2,935
378,50	6,146
378,71	8,439
378,92	3,357
379,12	6,500
379,33	4,717
379,54	5,954
379,75	5,183
379,95	2,865
380,16	4,723
380,37	6,417
380,58	3,129
380,78	5,831
380,99	2,737
381,20	2,714
381,41	5,858
381,61	6,061
381,82	6,522
382,03	3,473
382,24	4,045
382,44	4,601
382,65	3,958
382,86	5,808
383,06	5,543
383,27	6,605
383,48	2,793
383,69	6,250
383,89	5,827
384,10	5,158
384,31	4,975
384,51	4,553
384,72	6,511
384,93	5,467
385,14	0,852
385,34	2,959
385,55	2,299
385,76	2,545
385,96	7,259
386,17	5,552
386,38	3,316
386,59	5,609
386,79	1,976
387,00	7,941
387,21	6,049
387,41	6,984
387,62	2,024
387,83	5,075
388,03	3,308
388,24	1,207
388,45	3,746
388,66	6,800
388,86	4,471
389,07	2,715
389,28	8,861
389,48	4,717
389,69	3,439
389,90	2,466
390,10	8,887
390,31	7,964
390,52	0,306
390,72	1,443
390,93	4,284
391,14	3,544
391,34	3,275
391,55	5,678
391,76	12,197
391,96	5,374
392,17	3,620
392,38	6,760
392,58	5,162
392,79	3,742
393,00	0,942
393,20	3,433
393,41	4,482
393,62	5,380
393,82	5,750
394,03	6,650
394,24	3,408
394,44	8,408
394,65	6,254
394,86	3,520
395,06	6,545
395,27	3,274
395,48	4,089
395,68	5,406
395,89	4,440
396,10	6,605
396,30	5,581
396,51	5,018
396,72	5,221
396,92	2,977
397,13	4,553
397,34	2,140
397,54	7,610
397,75	3,902
397,95	3,332
398,16	6,211
398,37	2,358
398,57	5,378
398,78	6,960
398,99	4,166
399,19	2,532
399,40	6,458
399,60	1,708
399,81	3,439
400,02	7,555
400,22	7,553
400,43	4,058
400,64	5,501
400,84	2,669
401,05	5,388
401,25	6,714
401,46	8,282
401,67	2,167
401,87	3,592
402,08	0,803
402,29	2,358
402,49	6,355
402,70	5,424
402,90	1,103
403,11	4,048
403,32	5,719
403,52	4,236
403,73	6,435
403,93	8,806
404,14	7,319
404,35	3,672
404,55	1,600
404,76	3,915
404,96	5,942
405,17	7,806
405,38	8,589
405,58	3,360
405,79	7,450
405,99	7,515
406,20	6,816
406,40	-1,204
406,61	5,852
406,82	0,372
407,02	7,475
407,23	2,921
407,43	5,527
407,64	4,386
407,85	1,341
408,05	2,010
408,26	13,595
408,46	7,546
408,67	1,290
408,87	4,356
409,08	2,685
409,29	9,556
409,49	5,220
409,70	3,697
409,90	7,497
410,11	4,879
410,31	7,333
410,52	1,961
410,72	3,637
410,93	7,526
411,14	4,345
411,34	2,733
411,55	8,719
411,75	7,830
411,96	6,361
412,16	6,698
412,37	3,059
412,57	8,949
412,78	7,787
412,99	4,349
413,19	1,568
413,40	6,807
413,60	2,605
413,81	4,056
414,01	6,346
414,22	5,919
414,42	1,566
414,63	-0,520
414,83	7,663
415,04	6,715
415,24	5,517
415,45	2,636
415,65	0,962
415,86	0,750
416,07	3,156
416,27	4,251
416,48	8,508
416,68	7,453
416,89	0,815
417,09	3,865
417,30	8,804
417,50	4,446
417,71	6,724
417,91	8,067
418,12	4,395
418,32	3,993
418,53	5,823
418,73	2,564
418,94	8,048
419,14	3,447
419,35	4,070
419,55	4,154
419,76	5,751
419,96	0,917
420,17	5,633
420,37	4,120
420,58	6,925
420,78	3,610
420,99	5,621
421,19	7,887
421,40	5,517
421,60	11,124
421,81	3,667
422,01	2,005
422,22	4,023
422,42	6,889
422,63	6,486
422,83	5,204
423,04	8,974
423,24	6,797
423,45	1,204
423,65	5,458
423,86	5,876
424,06	8,254
424,27	2,171
424,47	3,588
424,67	0,574
424,88	7,040
425,08	4,738
425,29	10,270
425,49	3,219
425,70	-3,580
425,90	6,116
426,11	5,735
426,31	6,423
426,52	6,735
426,72	-0,102
426,93	4,445
427,13	8,621
427,33	4,478
427,54	4,415
427,74	3,880
427,95	10,462
428,15	-1,196
428,36	4,714
428,56	4,112
428,77	6,436
428,97	5,922
429,18	6,999
429,38	7,381
429,58	5,768
429,79	6,388
429,99	4,052
430,20	0,975
430,40	7,619
430,61	0,699
430,81	3,437
431,01	7,365
431,22	7,743
431,42	8,412
431,63	-0,265
431,83	3,035
432,04	6,899
432,24	8,787
432,44	3,967
432,65	2,991
432,85	6,582
433,06	7,525
433,26	5,466
433,47	4,762
433,67	2,487
433,87	7,944
434,08	1,153
434,28	5,374
434,49	5,257
434,69	9,605
434,89	5,648
435,10	6,293
435,30	6,984
435,51	2,674
435,71	3,417
435,91	2,431
436,12	0,970
436,32	5,558
436,53	5,633
436,73	4,586
436,93	8,556
437,14	6,655
437,34	3,527
437,55	5,036
437,75	4,178
437,95	9,569
438,16	2,430
438,36	3,399
438,57	0,118
438,77	-0,655
438,97	4,112
439,18	6,718
439,38	5,499
439,58	-0,434
439,79	5,124
439,99	3,770
440,20	9,126
440,40	6,775
440,60	7,999
440,81	4,970
441,01	6,870
441,21	2,898
441,42	2,464
441,62	6,967
441,83	7,072
442,03	3,418
442,23	5,488
442,44	6,543
442,64	6,507
442,84	4,712
443,05	6,205
443,25	3,711
443,45	0,747
443,66	4,095
443,86	3,341
444,06	3,592
444,27	4,264
444,47	3,441
444,67	0,727
444,88	5,579
445,08	6,512
445,28	5,969
445,49	4,345
445,69	5,768
445,90	7,661
446,10	6,598
446,30	6,400
446,51	4,989
446,71	9,983
446,91	10,347
447,12	11,431
447,32	5,921
447,52	7,416
447,72	6,792
447,93	6,872
448,13	2,574
448,33	9,809
448,54	7,207
448,74	1,531
448,94	7,169
449,15	9,441
449,35	8,640
449,55	2,697
449,76	10,622
449,96	4,104
450,16	8,798
450,37	0,405
450,57	9,205
450,77	2,870
450,98	8,657
451,18	7,227
451,38	4,352
451,58	6,598
451,79	6,942
451,99	8,529
452,19	5,501
452,40	5,269
452,60	2,730
452,80	5,045
453,00	5,298
453,21	7,437
453,41	7,623
453,61	4,402
453,82	6,524
454,02	-1,243
454,22	9,281
454,42	7,180
454,63	4,972
454,83	2,737
455,03	9,307
455,24	7,587
455,44	4,851
455,64	4,877
455,84	1,971
456,05	2,096
456,25	6,255
456,45	8,339
456,65	4,609
456,86	9,035
457,06	9,544
