Fichero De Datos De SpectraSuite
++++++++++++++++++++++++++++++++++++
Fecha: Wed Apr 22 11:56:03 CEST 2009
Usuario: evoflor
Presente Oscuro Del Espectro: Sí
La Referencia de Presente Del Espectro De: Sí
Muestreados de los componentes de Número de espectros: 1
Espectrómetros: USB4F02353
Tiempo de integración (usec): 500000 (USB4F02353)
Promedio de Espectros Hechos un: 5 (USB4F02353)
El Alisar Del Furgón: 0 (USB4F02353)
Párrafo de de Corregir del la del del de Eléctrica del obscuridad: Sí (USB4F02353)
Estrobo/Lámpara Permitido: No (USB4F02353)
Correct for Detector Non-linearity: No (USB4F02353)
Párrafo de de Corregir del la del del de Externa del luz: No (USB4F02353)
Procesado del espectro de Número de pixeles en: 3648
>>>>> Comienza Data<<<<< Espectral Procesado Del EL
177,79	224,026
178,00	224,026
178,22	224,026
178,44	978,626
178,66	-100,146
178,88	114,186
179,09	-210,830
179,31	286,513
179,53	780,325
179,75	192,605
179,96	248,664
180,18	-232,754
180,40	275,303
180,62	422,666
180,83	-92,789
181,05	-1284,695
181,27	-62145,000
181,49	-70,533
181,70	394,788
181,92	845,406
182,14	439,292
182,36	8,518
182,58	-414,450
182,79	779,665
183,01	-97,629
183,23	245,764
183,45	-119,215
183,66	-167,456
183,88	725,559
184,10	-3486,273
184,32	229,567
184,53	204,256
184,75	-291,494
184,97	124,649
185,18	-216,626
185,40	-545,409
185,62	103,821
185,84	-50,993
186,05	188,943
186,27	-190,931
186,49	1455,577
186,71	8,657
186,92	111,058
187,14	-83,062
187,36	181,946
187,58	61,652
187,79	-21,953
188,01	311,662
188,23	-143,310
188,45	-86,889
188,66	265,379
188,88	-3339,000
189,10	-1719,450
189,31	-46,152
189,53	0,082
189,75	360,102
189,97	169,788
190,18	50,408
190,40	704,382
190,62	-47,720
190,83	-296,002
191,05	131,709
191,27	66,986
191,49	378,824
191,70	-463,197
191,92	-969,025
192,14	-85,564
192,35	542,029
192,57	2752,714
192,79	129,218
193,01	184,728
193,22	37,249
193,44	-36,937
193,66	72,454
193,87	111,874
194,09	-16,697
194,31	118,278
194,53	1032,483
194,74	-33,315
194,96	105,940
195,18	130,646
195,39	-292,203
195,61	-69,399
195,83	-207,489
196,04	121,668
196,26	-348,467
196,48	67,276
196,70	345,417
196,91	270,085
197,13	150,494
197,35	0,076
197,56	381,873
197,78	1545,112
198,00	881,434
198,21	135,655
198,43	-1015,378
198,65	150,624
198,86	893,687
199,08	445,721
199,30	364,464
199,51	-176,042
199,73	215,756
199,95	245,161
200,16	692,481
200,38	79,917
200,60	186,227
200,81	424,079
201,03	105,285
201,25	-1674,450
201,46	135,263
201,68	45,848
201,90	4480,568
202,11	-151,317
202,33	40,476
202,55	214,312
202,76	-8,289
202,98	420,366
203,20	-78,101
203,41	-611,289
203,63	129,314
203,85	-123345,000
204,06	58,573
204,28	-240,831
204,50	72,922
204,71	286,299
204,93	317,160
205,15	214,292
205,36	-359,742
205,58	335,211
205,80	-202,943
206,01	135,267
206,23	82,513
206,45	247,694
206,66	131,998
206,88	51,353
207,10	221,011
207,31	252,775
207,53	-102,729
207,75	95,867
207,96	1229,440
208,18	-212,022
208,39	51,657
208,61	4269,857
208,83	-458,148
209,04	148,490
209,26	-381,774
209,48	247,008
209,69	307,815
209,91	659,949
210,13	0,701
210,34	95,993
210,56	204,829
210,77	-1935,000
210,99	102,825
211,21	7361,471
211,42	-102,547
211,64	24,954
211,86	260,794
212,07	248,475
212,29	212,633
212,50	149,011
212,72	460,558
212,94	164,750
213,15	90,685
213,37	81,858
213,58	-69,945
213,80	-3183,750
214,02	9902,647
214,23	367,965
214,45	430,967
214,67	-1548,110
214,88	-108,876
215,10	-199,727
215,31	-64,749
215,53	-167,625
215,75	280,252
215,96	1940,031
216,18	-620,493
216,39	261,676
216,61	414,727
216,83	538,594
217,04	1547,697
217,26	-71,056
217,47	177,876
217,69	264,344
217,91	64,832
218,12	23355,000
218,34	89,845
218,55	391,631
218,77	65,535
218,99	138,923
219,20	-131,210
219,42	216,837
219,63	-30,800
219,85	-73,710
220,06	-58,673
220,28	170,542
220,50	58,085
220,71	90,449
220,93	3838,585
221,14	-2025,450
221,36	-32,782
221,58	13,009
221,79	294,298
222,01	1552,112
222,22	248,980
222,44	-859,045
222,65	118,623
222,87	214,301
223,09	142,365
223,30	64,157
223,52	65,898
223,73	206,438
223,95	2,599
224,16	193,082
224,38	260,296
224,60	165,198
224,81	188,039
225,03	69,433
225,24	159,510
225,46	4,560
225,67	100,813
225,89	27,153
226,10	442,003
226,32	957,960
226,54	-26,455
226,75	-16,462
226,97	163,842
227,18	133,698
227,40	31,093
227,61	53,652
227,83	37,625
228,04	155,390
228,26	83,904
228,47	47,789
228,69	180,707
228,91	143,937
229,12	32,313
229,34	20,754
229,55	49,653
229,77	-6,090
229,98	15,081
230,20	49,486
230,41	5,390
230,63	51,635
230,84	-38,787
231,06	-12,837
231,27	24,661
231,49	55,556
231,71	31,960
231,92	25,085
232,14	14,942
232,35	109,898
232,57	70,287
232,78	15,244
233,00	59,970
233,21	57,215
233,43	7,385
233,64	22,961
233,86	47,132
234,07	36,339
234,29	25,219
234,50	13,099
234,72	42,065
234,93	18,495
235,15	31,718
235,36	29,318
235,58	28,979
235,79	54,448
236,01	6,852
236,22	19,340
236,44	53,239
236,65	36,080
236,87	27,839
237,08	10,152
237,30	-2,115
237,51	40,556
237,73	3,286
237,94	1,476
238,16	17,445
238,37	10,974
238,59	20,843
238,80	10,977
239,02	14,945
239,23	21,055
239,45	-9,519
239,66	25,393
239,88	31,773
240,09	26,636
240,31	1,500
240,52	12,841
240,74	17,629
240,95	9,211
241,17	9,286
241,38	14,761
241,60	12,055
241,81	23,912
242,03	5,659
242,24	5,721
242,46	23,203
242,67	9,659
242,89	13,022
243,10	18,002
243,32	18,180
243,53	19,239
243,75	15,288
243,96	13,452
244,18	9,684
244,39	6,974
244,60	9,318
244,82	8,269
245,03	15,732
245,25	17,741
245,46	24,304
245,68	7,712
245,89	18,989
246,11	18,138
246,32	17,235
246,54	6,305
246,75	13,626
246,97	20,998
247,18	22,086
247,39	9,606
247,61	6,767
247,82	9,829
248,04	9,992
248,25	11,616
248,47	14,693
248,68	16,320
248,90	9,094
249,11	13,731
249,33	17,730
249,54	10,439
249,75	12,948
249,97	5,420
250,18	15,104
250,40	22,231
250,61	-1,882
250,83	11,204
251,04	2,424
251,25	17,179
251,47	6,894
251,68	12,503
251,90	12,101
252,11	14,229
252,33	10,600
252,54	10,859
252,76	13,091
252,97	8,289
253,18	4,667
253,40	13,223
253,61	4,658
253,83	13,089
254,04	14,185
254,25	10,858
254,47	9,752
254,68	10,947
254,90	8,924
255,11	14,276
255,33	11,144
255,54	10,327
255,75	10,070
255,97	9,392
256,18	8,501
256,40	10,771
256,61	12,664
256,82	1,561
257,04	15,179
257,25	7,706
257,47	9,838
257,68	5,553
257,89	13,290
258,11	12,315
258,32	6,691
258,54	13,032
258,75	15,630
258,96	15,394
259,18	12,831
259,39	9,109
259,61	11,568
259,82	8,843
260,03	11,140
260,25	9,149
260,46	12,770
260,68	10,053
260,89	8,242
261,10	6,440
261,32	9,075
261,53	10,346
261,75	12,428
261,96	1,707
262,17	17,634
262,39	17,136
262,60	6,634
262,81	4,114
263,03	18,720
263,24	8,189
263,46	4,389
263,67	9,260
263,88	11,854
264,10	14,337
264,31	5,270
264,52	13,250
264,74	11,075
264,95	8,196
265,17	14,384
265,38	7,438
265,59	15,225
265,81	8,516
266,02	4,383
266,23	6,868
266,45	16,457
266,66	14,610
266,87	10,239
267,09	8,554
267,30	13,649
267,52	10,640
267,73	7,828
267,94	7,140
268,16	12,017
268,37	8,500
268,58	13,620
268,80	10,999
269,01	10,217
269,22	11,122
269,44	11,420
269,65	10,960
269,86	6,846
270,08	11,761
270,29	7,269
270,50	9,034
270,72	13,559
270,93	7,564
271,14	6,941
271,36	9,430
271,57	11,164
271,78	13,280
272,00	14,470
272,21	11,344
272,42	7,918
272,64	14,975
272,85	9,973
273,06	8,584
273,28	13,010
273,49	8,649
273,70	10,421
273,92	10,898
274,13	12,258
274,34	9,143
274,56	8,922
274,77	7,514
274,98	10,304
275,20	10,911
275,41	10,490
275,62	10,673
275,84	9,020
276,05	16,795
276,26	8,535
276,47	6,614
276,69	14,298
276,90	10,444
277,11	7,863
277,33	8,361
277,54	14,134
277,75	11,888
277,97	7,858
278,18	6,514
278,39	8,119
278,61	9,150
278,82	13,811
279,03	9,988
279,24	10,074
279,46	6,518
279,67	13,125
279,88	8,145
280,10	11,565
280,31	4,697
280,52	10,305
280,73	5,869
280,95	8,581
281,16	13,503
281,37	8,942
281,59	14,126
281,80	14,546
282,01	7,102
282,22	7,510
282,44	4,116
282,65	17,413
282,86	13,130
283,08	10,498
283,29	9,366
283,50	7,685
283,71	12,899
283,93	12,616
284,14	11,893
284,35	8,858
284,56	11,168
284,78	8,106
284,99	9,266
285,20	11,116
285,42	8,419
285,63	9,196
285,84	7,448
286,05	6,786
286,27	10,045
286,48	7,111
286,69	7,514
286,90	8,659
287,12	8,287
287,33	5,038
287,54	8,186
287,75	12,635
287,97	10,443
288,18	6,266
288,39	8,830
288,60	9,163
288,82	8,685
289,03	6,801
289,24	11,516
289,45	10,271
289,67	7,730
289,88	6,079
290,09	10,092
290,30	8,425
290,52	6,881
290,73	6,273
290,94	6,075
291,15	7,650
291,37	10,685
291,58	8,849
291,79	6,193
292,00	11,806
292,21	8,121
292,43	8,513
292,64	6,599
292,85	8,545
293,06	12,485
293,28	5,837
293,49	7,893
293,70	13,893
293,91	9,229
294,12	9,532
294,34	6,585
294,55	8,494
294,76	8,477
294,97	9,905
295,19	3,947
295,40	9,063
295,61	10,660
295,82	5,208
296,03	8,956
296,25	9,956
296,46	6,520
296,67	4,940
296,88	4,709
297,09	12,975
297,31	9,755
297,52	10,378
297,73	6,874
297,94	11,753
298,15	10,936
298,37	9,045
298,58	12,520
298,79	8,684
299,00	6,152
299,21	7,618
299,43	7,101
299,64	12,711
299,85	8,965
300,06	7,973
300,27	7,484
300,49	11,370
300,70	9,088
300,91	8,408
301,12	6,166
301,33	12,358
301,54	6,877
301,76	9,936
301,97	7,819
302,18	6,643
302,39	12,054
302,60	17,139
302,82	9,039
303,03	11,155
303,24	9,074
303,45	7,309
303,66	8,208
303,87	8,900
304,09	11,817
304,30	8,483
304,51	6,412
304,72	7,984
304,93	10,915
305,14	8,653
305,36	7,418
305,57	4,636
305,78	10,624
305,99	6,723
306,20	7,489
306,41	7,885
306,62	7,663
306,84	5,762
307,05	3,452
307,26	8,856
307,47	9,503
307,68	9,890
307,89	7,108
308,11	9,422
308,32	9,565
308,53	7,088
308,74	5,688
308,95	9,697
309,16	9,273
309,37	10,700
309,59	4,738
309,80	8,685
310,01	8,492
310,22	8,684
310,43	6,811
310,64	8,452
310,85	10,123
311,06	7,024
311,28	7,649
311,49	7,966
311,70	13,058
311,91	6,493
312,12	6,090
312,33	7,960
312,54	9,689
312,75	9,511
312,97	8,362
313,18	10,338
313,39	8,546
313,60	8,517
313,81	8,436
314,02	7,106
314,23	8,853
314,44	8,074
314,65	9,380
314,87	7,900
315,08	5,890
315,29	12,261
315,50	9,346
315,71	10,364
315,92	11,440
316,13	8,323
316,34	9,369
316,55	9,068
316,77	6,560
316,98	7,332
317,19	9,257
317,40	12,312
317,61	13,399
317,82	8,628
318,03	6,800
318,24	6,865
318,45	9,321
318,66	8,191
318,87	6,232
319,09	9,806
319,30	9,825
319,51	9,734
319,72	9,635
319,93	12,595
320,14	10,958
320,35	11,281
320,56	6,506
320,77	6,328
320,98	12,823
321,19	9,266
321,40	8,281
321,62	10,370
321,83	8,068
322,04	9,821
322,25	8,324
322,46	10,918
322,67	11,098
322,88	7,842
323,09	10,769
323,30	10,104
323,51	11,856
323,72	10,261
323,93	6,760
324,14	6,337
324,35	5,365
324,56	4,830
324,77	6,999
324,99	8,427
325,20	5,948
325,41	8,710
325,62	7,647
325,83	6,434
326,04	6,232
326,25	8,616
326,46	5,570
326,67	8,370
326,88	9,009
327,09	8,768
327,30	2,538
327,51	7,958
327,72	8,770
327,93	8,570
328,14	3,346
328,35	6,880
328,56	11,557
328,77	8,324
328,98	8,542
329,19	9,827
329,40	9,286
329,61	8,799
329,82	5,371
330,04	9,411
330,25	6,782
330,46	7,301
330,67	6,340
330,88	8,220
331,09	9,612
331,30	9,418
331,51	7,704
331,72	8,910
331,93	8,418
332,14	6,250
332,35	10,174
332,56	7,321
332,77	10,283
332,98	6,122
333,19	7,097
333,40	8,621
333,61	8,710
333,82	11,365
334,03	9,689
334,24	7,986
334,45	8,822
334,66	11,389
334,87	9,784
335,08	6,016
335,29	7,105
335,50	6,508
335,71	8,129
335,92	9,711
336,13	12,204
336,34	5,397
336,55	10,208
336,76	12,551
336,97	8,153
337,18	4,167
337,39	6,558
337,60	11,092
337,81	6,589
338,02	6,984
338,23	8,096
338,44	6,488
338,65	8,350
338,86	7,855
339,07	7,401
339,28	11,238
339,49	7,774
339,70	6,465
339,91	9,709
340,11	10,880
340,32	8,116
340,53	6,861
340,74	4,306
340,95	6,149
341,16	10,541
341,37	7,608
341,58	7,309
341,79	8,818
342,00	6,761
342,21	7,738
342,42	6,423
342,63	10,247
342,84	8,267
343,05	11,742
343,26	10,220
343,47	9,968
343,68	6,854
343,89	8,472
344,10	7,966
344,31	11,985
344,52	6,520
344,73	8,206
344,94	10,321
345,14	10,424
345,35	11,670
345,56	6,217
345,77	7,774
345,98	7,162
346,19	7,806
346,40	8,653
346,61	10,283
346,82	11,801
347,03	8,391
347,24	7,517
347,45	8,403
347,66	12,076
347,87	8,224
348,08	7,729
348,28	7,758
348,49	11,226
348,70	10,726
348,91	10,846
349,12	6,647
349,33	21,743
349,54	7,770
349,75	9,936
349,96	8,221
350,17	8,835
350,38	5,585
350,59	12,632
350,80	9,826
351,00	10,774
351,21	12,526
351,42	8,837
351,63	5,692
351,84	8,418
352,05	11,656
352,26	10,649
352,47	8,586
352,68	9,970
352,89	11,640
353,09	12,782
353,30	6,562
353,51	10,967
353,72	12,106
353,93	11,574
354,14	7,644
354,35	7,604
354,56	11,966
354,77	9,017
354,98	7,867
355,18	9,875
355,39	11,393
355,60	7,883
355,81	8,333
356,02	8,606
356,23	9,359
356,44	9,597
356,65	8,794
356,85	14,095
357,06	13,194
357,27	11,731
357,48	8,637
357,69	11,142
357,90	6,950
358,11	7,227
358,32	8,982
358,52	9,629
358,73	9,692
358,94	7,961
359,15	11,554
359,36	8,891
359,57	9,164
359,78	11,992
359,98	7,027
360,19	8,737
360,40	8,874
360,61	7,619
360,82	8,845
361,03	12,594
361,24	9,762
361,44	7,987
361,65	7,419
361,86	7,862
362,07	13,128
362,28	6,045
362,49	8,855
362,70	9,392
362,90	12,349
363,11	8,249
363,32	9,370
363,53	10,442
363,74	10,587
363,95	11,525
364,15	11,758
364,36	14,701
364,57	10,386
364,78	9,690
364,99	7,034
365,20	11,587
365,40	11,120
365,61	6,595
365,82	8,815
366,03	10,492
366,24	12,524
366,45	4,846
366,65	10,267
366,86	10,450
367,07	9,243
367,28	8,349
367,49	8,256
367,69	12,480
367,90	9,290
368,11	8,595
368,32	6,138
368,53	8,019
368,73	11,377
368,94	9,363
369,15	10,307
369,36	14,014
369,57	9,467
369,78	9,805
369,98	8,652
370,19	14,623
370,40	9,747
370,61	9,542
370,82	6,142
371,02	11,531
371,23	14,569
371,44	7,925
371,65	10,679
371,85	13,967
372,06	8,158
372,27	8,469
372,48	9,256
372,69	8,510
372,89	7,398
373,10	9,418
373,31	7,866
373,52	10,811
373,73	13,350
373,93	9,684
374,14	8,865
374,35	8,732
374,56	11,563
374,76	9,879
374,97	8,766
375,18	10,938
375,39	10,491
375,60	10,171
375,80	9,641
376,01	8,227
376,22	11,175
376,43	8,938
376,63	7,970
376,84	6,848
377,05	13,245
377,26	4,959
377,46	6,270
377,67	8,276
377,88	7,701
378,09	8,928
378,29	5,303
378,50	12,428
378,71	9,131
378,92	7,485
379,12	8,889
379,33	6,323
379,54	10,681
379,75	10,510
379,95	10,906
380,16	10,688
380,37	9,438
380,58	8,525
380,78	8,442
380,99	10,729
381,20	7,283
381,41	11,067
381,61	9,668
381,82	11,170
382,03	9,907
382,24	9,454
382,44	8,998
382,65	12,345
382,86	8,023
383,06	8,222
383,27	10,406
383,48	10,106
383,69	12,452
383,89	13,793
384,10	9,734
384,31	7,732
384,51	11,695
384,72	12,849
384,93	8,256
385,14	11,532
385,34	12,129
385,55	9,756
385,76	7,080
385,96	12,923
386,17	10,200
386,38	13,462
386,59	12,669
386,79	10,169
387,00	12,637
387,21	12,352
387,41	9,381
387,62	9,196
387,83	16,512
388,03	9,414
388,24	7,397
388,45	10,905
388,66	8,812
388,86	11,009
389,07	10,053
389,28	15,222
389,48	12,649
389,69	9,022
389,90	11,506
390,10	12,956
390,31	14,342
390,52	8,565
390,72	8,387
390,93	12,498
391,14	11,683
391,34	12,430
391,55	11,561
391,76	15,031
391,96	12,513
392,17	10,967
392,38	15,203
392,58	14,564
392,79	14,619
393,00	8,647
393,20	14,186
393,41	11,055
393,62	12,089
393,82	14,871
394,03	8,380
394,24	13,667
394,44	14,658
394,65	12,297
394,86	11,571
395,06	14,820
395,27	14,009
395,48	12,785
395,68	14,591
395,89	15,818
396,10	17,747
396,30	13,175
396,51	12,208
396,72	15,037
396,92	14,442
397,13	15,327
397,34	12,660
397,54	18,906
397,75	13,842
397,95	14,865
398,16	15,543
398,37	16,141
398,57	15,392
398,78	17,526
398,99	16,837
399,19	19,439
399,40	18,612
399,60	14,707
399,81	15,405
400,02	19,544
400,22	18,029
400,43	18,462
400,64	16,014
400,84	16,393
401,05	18,727
401,25	15,671
401,46	17,534
401,67	19,570
401,87	18,456
402,08	15,206
402,29	19,893
402,49	20,901
402,70	20,865
402,90	15,622
403,11	21,860
403,32	19,007
403,52	17,078
403,73	21,163
403,93	19,564
404,14	21,840
404,35	20,900
404,55	20,425
404,76	20,085
404,96	18,849
405,17	22,217
405,38	25,946
405,58	17,810
405,79	20,534
405,99	22,020
406,20	23,916
406,40	16,755
406,61	24,000
406,82	23,895
407,02	24,706
407,23	24,073
407,43	19,546
407,64	20,010
407,85	24,541
408,05	18,583
408,26	29,658
408,46	28,744
408,67	19,935
408,87	21,956
409,08	25,329
409,29	25,597
409,49	29,699
409,70	23,184
409,90	23,653
410,11	26,167
410,31	27,198
410,52	25,290
410,72	22,971
410,93	30,589
411,14	22,925
411,34	26,141
411,55	29,230
411,75	30,516
411,96	28,590
412,16	29,968
412,37	27,387
412,57	26,787
412,78	29,570
412,99	25,804
413,19	30,750
413,40	29,140
413,60	25,365
413,81	30,080
414,01	31,552
414,22	28,569
414,42	26,551
414,63	26,541
414,83	33,430
415,04	36,980
415,24	28,617
415,45	27,485
415,65	27,956
415,86	29,929
416,07	31,763
416,27	29,590
416,48	34,783
416,68	33,181
416,89	31,125
417,09	29,147
417,30	33,703
417,50	33,703
417,71	36,682
417,91	34,472
418,12	32,011
418,32	30,717
418,53	32,033
418,73	29,576
418,94	34,781
419,14	35,573
419,35	28,139
419,55	33,742
419,76	35,629
419,96	34,778
420,17	30,472
420,37	31,729
420,58	40,903
420,78	33,543
420,99	31,936
421,19	37,043
421,40	35,914
421,60	39,788
421,81	30,550
422,01	36,228
422,22	38,426
422,42	36,026
422,63	37,776
422,83	36,230
423,04	38,969
423,24	41,481
423,45	34,858
423,65	35,015
423,86	40,540
424,06	37,075
424,27	34,120
424,47	34,157
424,67	33,789
424,88	39,873
425,08	36,290
425,29	45,278
425,49	38,003
425,70	33,079
425,90	37,117
426,11	35,668
426,31	37,120
426,52	35,960
426,72	39,471
426,93	38,912
427,13	42,861
427,33	37,538
427,54	40,612
427,74	42,700
427,95	41,852
428,15	34,862
428,36	39,835
428,56	36,543
428,77	37,213
428,97	39,645
429,18	42,086
429,38	38,186
429,58	40,627
429,79	43,811
429,99	37,922
430,20	34,810
430,40	43,541
430,61	37,503
430,81	39,213
431,01	37,301
431,22	43,936
431,42	40,492
431,63	37,265
431,83	38,382
432,04	40,427
432,24	41,436
432,44	38,710
432,65	34,169
432,85	37,128
433,06	36,666
433,26	35,935
433,47	35,521
433,67	35,772
433,87	38,507
434,08	33,882
434,28	37,202
434,49	36,279
434,69	40,244
434,89	35,631
435,10	38,078
435,30	40,204
435,51	32,255
435,71	36,027
435,91	39,379
436,12	36,769
436,32	36,577
436,53	39,778
436,73	38,506
436,93	42,468
437,14	38,680
437,34	41,907
437,55	38,238
437,75	41,125
437,95	40,752
438,16	43,771
438,36	39,646
438,57	36,702
438,77	41,868
438,97	39,982
439,18	45,221
439,38	41,024
439,58	37,835
439,79	40,559
439,99	37,832
440,20	42,882
440,40	40,382
440,60	41,161
440,81	43,333
441,01	42,221
441,21	41,744
441,42	42,113
441,62	41,047
441,83	42,562
442,03	43,895
442,23	42,325
442,44	40,128
442,64	42,074
442,84	37,390
443,05	39,061
443,25	38,639
443,45	42,249
443,66	43,105
443,86	36,765
444,06	41,393
444,27	38,372
444,47	40,414
444,67	39,739
444,88	41,927
445,08	43,573
445,28	40,151
445,49	40,901
445,69	41,644
445,90	41,882
446,10	45,471
446,30	42,930
446,51	39,278
446,71	42,666
446,91	45,981
447,12	46,024
447,32	41,928
447,52	43,831
447,72	42,998
447,93	43,661
448,13	40,969
448,33	50,503
448,54	44,741
448,74	37,517
448,94	43,505
449,15	46,516
449,35	45,228
449,55	40,594
449,76	47,474
449,96	41,320
