Fichero De Datos De SpectraSuite
++++++++++++++++++++++++++++++++++++
Fecha: Wed Apr 22 12:04:30 CEST 2009
Usuario: evoflor
Presente Oscuro Del Espectro: Sí
La Referencia de Presente Del Espectro De: Sí
Muestreados de los componentes de Número de espectros: 1
Espectrómetros: USB4F02353
Tiempo de integración (usec): 500000 (USB4F02353)
Promedio de Espectros Hechos un: 5 (USB4F02353)
El Alisar Del Furgón: 0 (USB4F02353)
Párrafo de de Corregir del la del del de Eléctrica del obscuridad: Sí (USB4F02353)
Estrobo/Lámpara Permitido: No (USB4F02353)
Correct for Detector Non-linearity: No (USB4F02353)
Párrafo de de Corregir del la del del de Externa del luz: No (USB4F02353)
Procesado del espectro de Número de pixeles en: 3648
>>>>> Comienza Data<<<<< Espectral Procesado Del EL
177,79	187,598
178,00	187,598
178,22	187,598
178,44	1454,231
178,66	-427,414
178,88	348,974
179,09	-206,660
179,31	236,287
179,53	562,740
179,75	197,786
179,96	690,216
180,18	-166,046
180,40	318,041
180,62	267,281
180,83	-22,459
181,05	-1986,159
181,27	-129565,000
181,49	92,033
181,70	325,250
181,92	762,766
182,14	525,798
182,36	80,946
182,58	-359,650
182,79	771,272
183,01	10,873
183,23	185,556
183,45	-135,585
183,66	-103,385
183,88	984,500
184,10	-2699,364
184,32	220,458
184,53	119,603
184,75	-117,469
184,97	22,411
185,18	-98,055
185,40	-475,793
185,62	121,189
185,84	170,884
186,05	88,657
186,27	-346,196
186,49	3840,962
186,71	5,668
186,92	179,522
187,14	-92,024
187,36	108,795
187,58	163,599
187,79	-110,737
188,01	321,275
188,23	-304,162
188,45	76,744
188,66	-56,406
188,88	-703,000
189,10	-2294,650
189,31	96,817
189,53	59,060
189,75	165,602
189,97	197,173
190,18	-274,399
190,40	502,735
190,62	-147,267
190,83	-224,056
191,05	260,358
191,27	48,757
191,49	360,804
191,70	-558,005
191,92	-823,432
192,14	-35,937
192,35	527,493
192,57	3084,714
192,79	-46,328
193,01	173,504
193,22	142,584
193,44	-1,476
193,66	95,439
193,87	125,193
194,09	-33,259
194,31	80,905
194,53	402,552
194,74	7,202
194,96	-3,497
195,18	148,783
195,39	-346,609
195,61	-107,307
195,83	-356,011
196,04	119,817
196,26	-492,789
196,48	-22,400
196,70	298,738
196,91	113,708
197,13	4,468
197,35	128,946
197,56	604,536
197,78	1336,306
198,00	780,175
198,21	227,015
198,43	-360,843
198,65	142,713
198,86	368,939
199,08	250,705
199,30	227,662
199,51	-357,541
199,73	201,519
199,95	293,973
200,16	290,635
200,38	60,850
200,60	164,287
200,81	358,383
201,03	171,101
201,25	-1655,650
201,46	204,551
201,68	113,633
201,90	3108,295
202,11	-161,317
202,33	171,212
202,55	640,812
202,76	-41,150
202,98	169,216
203,20	-138,293
203,41	-814,553
203,63	117,565
203,85	-80965,000
204,06	123,121
204,28	-112,687
204,50	188,746
204,71	254,355
204,93	-727,480
205,15	-84,142
205,36	37,925
205,58	141,583
205,80	-19,258
206,01	126,031
206,23	139,293
206,45	235,537
206,66	109,691
206,88	57,538
207,10	280,148
207,31	350,417
207,53	87,329
207,75	17,183
207,96	557,201
208,18	-259,497
208,39	49,501
208,61	3316,143
208,83	-246,599
209,04	206,135
209,26	207,535
209,48	241,481
209,69	217,685
209,91	756,976
210,13	76,030
210,34	-241,973
210,56	115,453
210,77	-1190,276
210,99	29,459
211,21	7568,529
211,42	-282,431
211,64	-26,150
211,86	169,337
212,07	169,025
212,29	211,733
212,50	126,451
212,72	41,404
212,94	62,229
213,15	106,399
213,37	115,150
213,58	-111,674
213,80	-2505,893
214,02	10109,706
214,23	348,111
214,45	410,049
214,67	296,768
214,88	-172,030
215,10	-247,121
215,31	117,828
215,53	-77,807
215,75	145,504
215,96	2509,720
216,18	-418,803
216,39	116,363
216,61	469,574
216,83	285,112
217,04	1324,326
217,26	-164,089
217,47	138,212
217,69	284,277
217,91	-62,539
218,12	-13465,000
218,34	212,575
218,55	458,263
218,77	19,610
218,99	102,771
219,20	-126,290
219,42	238,666
219,63	-151,525
219,85	-68,606
220,06	152,173
220,28	138,233
220,50	160,386
220,71	64,850
220,93	2342,736
221,14	-1250,650
221,36	86,109
221,58	-63,755
221,79	50,036
222,01	1085,905
222,22	443,849
222,44	282,753
222,65	48,558
222,87	968,986
223,09	114,340
223,30	82,854
223,52	98,307
223,73	82,992
223,95	6,289
224,16	189,206
224,38	315,557
224,60	37,764
224,81	62,564
225,03	96,107
225,24	61,881
225,46	-55,374
225,67	-4,226
225,89	23,514
226,10	555,617
226,32	-29,080
226,54	12,482
226,75	10,281
226,97	121,080
227,18	132,266
227,40	38,623
227,61	23,197
227,83	-5,228
228,04	161,299
228,26	52,126
228,47	34,936
228,69	80,490
228,91	162,627
229,12	101,338
229,34	55,800
229,55	51,558
229,77	-1,160
229,98	-13,618
230,20	67,837
230,41	37,502
230,63	86,872
230,84	83,667
231,06	16,859
231,27	-3,324
231,49	77,622
231,71	14,378
231,92	32,299
232,14	22,882
232,35	79,933
232,57	48,794
232,78	3,870
233,00	21,294
233,21	47,610
233,43	6,872
233,64	35,162
233,86	41,581
234,07	10,562
234,29	28,994
234,50	17,753
234,72	63,260
234,93	-3,705
235,15	35,326
235,36	44,704
235,58	44,620
235,79	63,105
236,01	27,016
236,22	30,670
236,44	59,835
236,65	14,750
236,87	16,068
237,08	11,139
237,30	1,763
237,51	29,729
237,73	-6,974
237,94	6,137
238,16	26,656
238,37	3,912
238,59	10,883
238,80	7,394
239,02	17,944
239,23	16,421
239,45	7,811
239,66	25,076
239,88	25,848
240,09	22,095
240,31	5,973
240,52	15,036
240,74	7,024
240,95	14,642
241,17	13,644
241,38	7,133
241,60	8,251
241,81	24,605
242,03	11,768
242,24	8,130
242,46	23,493
242,67	9,574
242,89	20,137
243,10	21,479
243,32	26,053
243,53	13,485
243,75	6,831
243,96	13,966
244,18	15,064
244,39	11,590
244,60	9,732
244,82	3,686
245,03	21,015
245,25	12,904
245,46	23,339
245,68	4,500
245,89	25,687
246,11	20,885
246,32	9,408
246,54	6,809
246,75	11,887
246,97	16,315
247,18	19,176
247,39	5,178
247,61	5,191
247,82	4,474
248,04	6,827
248,25	11,272
248,47	8,466
248,68	11,890
248,90	-0,121
249,11	4,433
249,33	15,244
249,54	9,931
249,75	9,591
249,97	5,043
250,18	13,779
250,40	22,923
250,61	-4,114
250,83	5,246
251,04	5,012
251,25	8,232
251,47	4,525
251,68	8,859
251,90	12,145
252,11	10,273
252,33	10,066
252,54	10,060
252,76	3,455
252,97	2,522
253,18	8,648
253,40	9,023
253,61	3,181
253,83	9,094
254,04	15,717
254,25	6,059
254,47	5,010
254,68	8,781
254,90	4,126
255,11	8,161
255,33	6,163
255,54	7,507
255,75	5,368
255,97	7,572
256,18	4,490
256,40	8,374
256,61	9,913
256,82	4,627
257,04	12,897
257,25	5,870
257,47	7,036
257,68	2,648
257,89	12,765
258,11	11,580
258,32	8,736
258,54	6,241
258,75	10,150
258,96	12,715
259,18	6,646
259,39	2,876
259,61	13,235
259,82	4,586
260,03	10,780
260,25	8,295
260,46	3,369
260,68	6,921
260,89	5,679
261,10	5,262
261,32	3,749
261,53	6,986
261,75	9,388
261,96	0,747
262,17	11,766
262,39	15,691
262,60	3,619
262,81	4,068
263,03	12,385
263,24	5,622
263,46	4,468
263,67	3,977
263,88	5,352
264,10	12,855
264,31	4,976
264,52	9,461
264,74	8,972
264,95	5,272
265,17	8,849
265,38	3,259
265,59	8,933
265,81	9,637
266,02	1,711
266,23	3,681
266,45	11,367
266,66	10,749
266,87	11,492
267,09	1,828
267,30	8,463
267,52	10,955
267,73	7,107
267,94	4,460
268,16	10,223
268,37	7,435
268,58	12,318
268,80	6,946
269,01	5,163
269,22	8,924
269,44	5,599
269,65	8,045
269,86	5,854
270,08	8,413
270,29	7,001
270,50	7,979
270,72	7,857
270,93	7,938
271,14	3,067
271,36	7,666
271,57	10,859
271,78	6,713
272,00	11,063
272,21	6,542
272,42	6,898
272,64	7,666
272,85	6,304
273,06	7,220
273,28	5,445
273,49	6,350
273,70	11,564
273,92	9,454
274,13	10,375
274,34	5,849
274,56	7,903
274,77	6,549
274,98	8,754
275,20	8,983
275,41	9,903
275,62	7,507
275,84	6,560
276,05	10,701
276,26	6,981
276,47	0,600
276,69	10,622
276,90	6,877
277,11	7,964
277,33	7,075
277,54	10,267
277,75	8,759
277,97	3,875
278,18	5,990
278,39	7,729
278,61	7,366
278,82	8,045
279,03	7,608
279,24	8,050
279,46	6,615
279,67	10,465
279,88	6,863
280,10	13,676
280,31	3,108
280,52	10,113
280,73	4,185
280,95	9,818
281,16	9,720
281,37	7,406
281,59	9,889
281,80	11,522
282,01	5,692
282,22	4,952
282,44	3,575
282,65	11,775
282,86	10,107
283,08	5,719
283,29	6,170
283,50	6,530
283,71	7,854
283,93	8,625
284,14	8,526
284,35	4,852
284,56	10,170
284,78	8,409
284,99	6,487
285,20	11,322
285,42	7,565
285,63	5,240
285,84	1,107
286,05	3,528
286,27	7,496
286,48	2,170
286,69	5,699
286,90	5,141
287,12	6,192
287,33	4,894
287,54	5,667
287,75	6,817
287,97	5,650
288,18	5,149
288,39	2,691
288,60	7,643
288,82	5,694
289,03	4,440
289,24	8,635
289,45	10,625
289,67	6,220
289,88	3,890
290,09	7,879
290,30	7,881
290,52	6,473
290,73	6,756
290,94	1,730
291,15	5,386
291,37	10,145
291,58	4,865
291,79	5,257
292,00	8,286
292,21	6,861
292,43	5,430
292,64	5,359
292,85	4,793
293,06	9,124
293,28	4,337
293,49	1,187
293,70	8,968
293,91	6,409
294,12	6,688
294,34	7,523
294,55	8,624
294,76	7,370
294,97	8,578
295,19	1,609
295,40	9,729
295,61	5,799
295,82	3,582
296,03	8,392
296,25	8,575
296,46	6,134
296,67	3,930
296,88	3,568
297,09	8,894
297,31	5,765
297,52	7,548
297,73	5,424
297,94	8,316
298,15	7,877
298,37	3,974
298,58	7,410
298,79	8,509
299,00	5,066
299,21	6,607
299,43	5,324
299,64	8,772
299,85	6,881
300,06	4,716
300,27	5,770
300,49	9,221
300,70	7,247
300,91	7,769
301,12	4,821
301,33	10,060
301,54	6,155
301,76	9,201
301,97	6,440
302,18	3,954
302,39	8,284
302,60	14,863
302,82	6,286
303,03	9,852
303,24	6,336
303,45	7,619
303,66	4,314
303,87	6,332
304,09	9,447
304,30	8,116
304,51	5,545
304,72	6,390
304,93	8,345
305,14	5,862
305,36	4,390
305,57	6,211
305,78	8,375
305,99	4,817
306,20	6,072
306,41	5,613
306,62	5,049
306,84	4,894
307,05	4,331
307,26	7,693
307,47	10,066
307,68	5,174
307,89	5,079
308,11	7,807
308,32	7,566
308,53	7,585
308,74	3,692
308,95	5,310
309,16	8,391
309,37	6,437
309,59	5,232
309,80	6,506
310,01	8,321
310,22	8,379
310,43	5,607
310,64	6,970
310,85	9,269
311,06	6,156
311,28	5,230
311,49	6,196
311,70	9,646
311,91	4,423
312,12	6,040
312,33	7,815
312,54	7,563
312,75	6,009
312,97	4,946
313,18	6,874
313,39	3,456
313,60	4,389
313,81	6,834
314,02	6,695
314,23	6,538
314,44	4,168
314,65	8,049
314,87	4,412
315,08	6,114
315,29	7,644
315,50	6,847
315,71	7,267
315,92	10,489
316,13	6,342
316,34	7,628
316,55	7,208
316,77	3,354
316,98	4,423
317,19	5,872
317,40	5,286
317,61	8,078
317,82	6,613
318,03	5,043
318,24	6,111
318,45	8,302
318,66	5,321
318,87	2,613
319,09	7,823
319,30	5,978
319,51	8,748
319,72	6,785
319,93	9,201
320,14	7,295
320,35	6,485
320,56	5,064
320,77	7,569
320,98	10,302
321,19	4,065
321,40	5,640
321,62	7,620
321,83	6,400
322,04	7,689
322,25	6,576
322,46	12,188
322,67	8,784
322,88	8,100
323,09	3,876
323,30	9,944
323,51	10,826
323,72	7,436
323,93	6,350
324,14	6,826
324,35	1,864
324,56	4,802
324,77	4,306
324,99	5,902
325,20	2,226
325,41	7,854
325,62	7,500
325,83	4,397
326,04	7,086
326,25	9,595
326,46	4,041
326,67	6,727
326,88	8,282
327,09	5,604
327,30	5,455
327,51	6,760
327,72	6,276
327,93	6,888
328,14	2,803
328,35	4,610
328,56	8,278
328,77	6,621
328,98	8,869
329,19	5,993
329,40	6,385
329,61	5,948
329,82	3,768
330,04	6,272
330,25	4,677
330,46	6,390
330,67	4,579
330,88	4,826
331,09	6,036
331,30	5,357
331,51	5,928
331,72	8,364
331,93	9,472
332,14	6,222
332,35	5,849
332,56	5,855
332,77	7,809
332,98	3,466
333,19	4,966
333,40	10,417
333,61	5,392
333,82	8,425
334,03	6,911
334,24	8,586
334,45	6,514
334,66	8,824
334,87	6,017
335,08	3,470
335,29	6,466
335,50	5,193
335,71	2,778
335,92	10,819
336,13	9,269
336,34	2,361
336,55	8,032
336,76	6,924
336,97	5,051
337,18	4,877
337,39	7,993
337,60	6,073
337,81	7,111
338,02	6,023
338,23	4,818
338,44	6,696
338,65	6,794
338,86	4,877
339,07	3,433
339,28	5,185
339,49	8,610
339,70	4,084
339,91	4,615
340,11	8,138
340,32	5,562
340,53	3,670
340,74	4,438
340,95	4,453
341,16	8,436
341,37	6,872
341,58	3,791
341,79	4,805
342,00	5,862
342,21	7,710
342,42	6,884
342,63	9,209
342,84	2,405
343,05	8,052
343,26	6,696
343,47	7,989
343,68	4,088
343,89	5,317
344,10	7,642
344,31	7,578
344,52	5,737
344,73	6,762
344,94	6,157
345,14	4,328
345,35	10,316
345,56	5,800
345,77	5,134
345,98	6,940
346,19	7,262
346,40	6,358
346,61	5,739
346,82	6,758
347,03	7,150
347,24	6,842
347,45	9,184
347,66	10,029
347,87	6,623
348,08	10,104
348,28	2,736
348,49	7,209
348,70	7,766
348,91	7,982
349,12	1,197
349,33	16,414
349,54	6,751
349,75	8,645
349,96	4,396
350,17	4,773
350,38	4,647
350,59	6,054
350,80	6,639
351,00	8,179
351,21	9,146
351,42	5,084
351,63	5,154
351,84	8,113
352,05	8,311
352,26	8,349
352,47	5,167
352,68	7,803
352,89	7,826
353,09	7,656
353,30	3,761
353,51	7,009
353,72	7,530
353,93	10,870
354,14	3,265
354,35	4,446
354,56	8,636
354,77	6,451
354,98	2,720
355,18	8,433
355,39	12,269
355,60	3,925
355,81	4,751
356,02	8,874
356,23	8,979
356,44	5,126
356,65	7,595
356,85	9,941
357,06	10,988
357,27	7,648
357,48	3,567
357,69	7,426
357,90	8,737
358,11	2,466
358,32	5,995
358,52	7,190
358,73	6,853
358,94	6,462
359,15	6,768
359,36	8,776
359,57	6,158
359,78	8,368
359,98	5,073
360,19	3,192
360,40	6,580
360,61	7,243
360,82	6,180
361,03	10,315
361,24	8,429
361,44	6,381
361,65	8,234
361,86	5,894
362,07	7,438
362,28	5,507
362,49	4,988
362,70	8,382
362,90	5,733
363,11	2,313
363,32	1,971
363,53	3,489
363,74	8,011
363,95	6,860
364,15	6,776
364,36	8,240
364,57	6,763
364,78	5,200
364,99	4,394
365,20	7,584
365,40	10,109
365,61	6,419
365,82	8,961
366,03	7,934
366,24	8,328
366,45	6,091
366,65	5,617
366,86	5,878
367,07	7,043
367,28	2,135
367,49	4,601
367,69	7,298
367,90	8,218
368,11	7,533
368,32	4,562
368,53	9,999
368,73	10,612
368,94	4,019
369,15	5,304
369,36	9,490
369,57	8,799
369,78	5,712
369,98	7,413
370,19	9,375
370,40	8,458
370,61	4,536
370,82	5,318
371,02	8,949
371,23	10,541
371,44	5,397
371,65	6,430
371,85	8,480
372,06	5,249
372,27	4,740
372,48	6,118
372,69	6,443
372,89	6,125
373,10	5,159
373,31	5,824
373,52	11,382
373,73	12,108
373,93	7,666
374,14	9,081
374,35	10,591
374,56	8,578
374,76	10,176
374,97	6,008
375,18	10,873
375,39	10,117
375,60	9,793
375,80	8,706
376,01	7,023
376,22	8,108
376,43	5,033
376,63	10,066
376,84	6,501
377,05	7,734
377,26	6,011
377,46	4,440
377,67	6,606
377,88	10,108
378,09	8,159
378,29	5,430
378,50	9,697
378,71	9,068
378,92	6,698
379,12	6,019
379,33	7,679
379,54	11,238
379,75	10,507
379,95	6,740
380,16	7,409
380,37	11,658
380,58	9,990
380,78	11,771
380,99	5,934
381,20	8,343
381,41	8,521
381,61	11,364
381,82	7,637
382,03	9,512
382,24	7,977
382,44	8,235
382,65	6,094
382,86	10,838
383,06	7,888
383,27	9,549
383,48	4,371
383,69	10,435
383,89	10,964
384,10	10,601
384,31	9,012
384,51	11,198
384,72	12,718
384,93	8,417
385,14	9,093
385,34	10,330
385,55	9,590
385,76	6,510
385,96	12,611
386,17	7,689
386,38	12,977
386,59	14,457
386,79	8,526
387,00	17,139
387,21	14,418
387,41	8,944
387,62	9,865
387,83	16,644
388,03	11,470
388,24	6,661
388,45	12,460
388,66	12,474
388,86	12,952
389,07	13,231
389,28	12,563
389,48	11,704
389,69	10,783
389,90	12,684
390,10	12,985
390,31	15,251
390,52	7,865
390,72	11,712
390,93	14,517
391,14	11,453
391,34	10,089
391,55	15,958
391,76	15,602
391,96	15,700
392,17	13,714
392,38	15,232
392,58	15,528
392,79	11,396
393,00	12,950
393,20	13,053
393,41	12,861
393,62	16,409
393,82	13,408
394,03	15,286
394,24	12,781
394,44	15,381
394,65	14,759
394,86	11,762
395,06	17,130
395,27	13,871
395,48	13,895
395,68	16,130
395,89	16,932
396,10	18,979
396,30	13,235
396,51	13,684
396,72	17,196
396,92	14,270
397,13	20,454
397,34	13,690
397,54	20,484
397,75	16,221
397,95	16,329
398,16	18,352
398,37	14,289
398,57	15,192
398,78	20,095
398,99	20,053
399,19	21,042
399,40	21,162
399,60	20,740
399,81	21,200
400,02	20,619
400,22	21,065
400,43	17,861
400,64	19,640
400,84	17,883
401,05	21,586
401,25	25,282
401,46	21,837
401,67	21,196
401,87	20,809
402,08	17,687
402,29	20,776
402,49	26,063
402,70	25,677
402,90	15,490
403,11	20,787
403,32	24,215
403,52	23,111
403,73	22,116
403,93	25,233
404,14	26,431
404,35	21,327
404,55	18,622
404,76	23,406
404,96	27,444
405,17	28,145
405,38	29,449
405,58	25,279
405,79	26,677
405,99	28,351
406,20	25,624
406,40	23,218
406,61	25,173
406,82	25,127
407,02	24,901
407,23	27,614
407,43	26,748
407,64	23,371
407,85	26,213
408,05	24,306
408,26	33,965
408,46	27,587
408,67	27,217
408,87	29,437
409,08	28,918
409,29	34,993
409,49	32,109
409,70	27,885
409,90	31,139
410,11	34,554
410,31	35,741
410,52	30,589
410,72	30,406
410,93	33,828
411,14	33,673
411,34	30,333
411,55	36,101
411,75	34,441
411,96	33,940
412,16	33,380
412,37	35,414
412,57	34,170
412,78	33,580
412,99	27,902
413,19	32,529
413,40	32,230
413,60	29,679
413,81	30,844
414,01	37,394
414,22	32,105
414,42	33,222
414,63	33,975
414,83	37,535
415,04	37,119
415,24	37,671
415,45	34,745
415,65	30,924
415,86	35,037
416,07	37,768
416,27	37,709
416,48	37,305
416,68	44,095
416,89	36,437
417,09	39,971
417,30	43,291
417,50	38,761
417,71	39,927
417,91	41,465
418,12	39,628
418,32	35,313
418,53	37,334
418,73	40,891
418,94	35,337
419,14	41,774
419,35	39,304
419,55	38,456
419,76	39,277
419,96	40,189
420,17	36,370
420,37	43,566
420,58	43,553
420,78	40,815
420,99	40,706
421,19	43,895
421,40	44,109
421,60	43,526
421,81	38,570
422,01	40,182
422,22	43,800
422,42	44,597
422,63	42,176
422,83	44,491
423,04	43,828
423,24	49,161
423,45	42,935
423,65	43,809
423,86	43,864
424,06	46,821
424,27	42,879
424,47	41,014
424,67	43,955
424,88	45,415
425,08	41,017
425,29	50,644
425,49	46,921
425,70	41,065
425,90	45,075
426,11	41,907
426,31	45,982
426,52	48,766
426,72	44,531
426,93	45,310
427,13	47,804
427,33	45,182
427,54	48,269
427,74	48,821
427,95	53,479
428,15	44,185
428,36	45,009
428,56	46,849
428,77	49,006
428,97	47,652
429,18	48,217
429,38	46,544
429,58	49,881
429,79	46,640
429,99	46,492
430,20	42,853
430,40	51,046
430,61	43,641
430,81	45,342
431,01	47,336
431,22	52,424
431,42	48,958
431,63	45,743
431,83	48,957
432,04	48,269
432,24	53,126
432,44	43,125
432,65	44,607
432,85	44,891
433,06	45,368
433,26	45,192
433,47	43,566
433,67	47,682
433,87	44,122
434,08	41,048
434,28	43,770
434,49	47,309
434,69	45,153
434,89	43,340
435,10	45,617
435,30	47,762
435,51	45,037
435,71	46,189
435,91	46,714
436,12	44,947
436,32	47,546
436,53	47,651
436,73	47,055
436,93	48,095
437,14	50,335
437,34	49,911
437,55	48,222
437,75	51,438
437,95	53,581
438,16	49,253
438,36	46,126
438,57	48,506
438,77	51,153
438,97	53,886
439,18	50,857
439,38	49,310
439,58	48,526
439,79	49,982
439,99	48,155
440,20	53,534
440,40	55,948
440,60	44,993
440,81	55,605
441,01	48,177
441,21	56,476
441,42	52,691
441,62	52,184
441,83	52,505
442,03	51,092
442,23	47,802
442,44	52,056
442,64	48,973
442,84	48,781
443,05	50,921
443,25	47,069
443,45	52,512
443,66	49,913
443,86	50,888
444,06	52,505
444,27	50,462
444,47	51,699
444,67	47,978
444,88	56,703
445,08	51,952
445,28	50,456
445,49	50,318
445,69	47,924
445,90	50,435
446,10	54,861
446,30	52,533
446,51	48,560
446,71	61,017
446,91	56,317
447,12	54,975
447,32	48,775
447,52	50,364
447,72	53,596
447,93	52,929
448,13	50,849
448,33	57,770
448,54	56,077
448,74	49,185
448,94	51,809
449,15	55,512
449,35	53,319
449,55	53,698
449,76	55,725
449,96	55,833
450,16	53,000
450,37	49,902
450,57	53,332
450,77	49,107
450,98	56,073
451,18	54,362
451,38	47,734
451,58	54,481
451,79	52,208
451,99	53,920
