Fichero De Datos De SpectraSuite
++++++++++++++++++++++++++++++++++++
Fecha: Wed Apr 22 10:44:51 CEST 2009
Usuario: evoflor
Presente Oscuro Del Espectro: Sí
La Referencia de Presente Del Espectro De: Sí
Muestreados de los componentes de Número de espectros: 1
Espectrómetros: USB4F02353
Tiempo de integración (usec): 500000 (USB4F02353)
Promedio de Espectros Hechos un: 5 (USB4F02353)
El Alisar Del Furgón: 0 (USB4F02353)
Párrafo de de Corregir del la del del de Eléctrica del obscuridad: Sí (USB4F02353)
Estrobo/Lámpara Permitido: No (USB4F02353)
Correct for Detector Non-linearity: No (USB4F02353)
Párrafo de de Corregir del la del del de Externa del luz: No (USB4F02353)
Procesado del espectro de Número de pixeles en: 3648
>>>>> Comienza Data<<<<< Espectral Procesado Del EL
177,79	257,544
178,00	257,544
178,22	257,544
178,44	914,560
178,66	-151,525
178,88	150,896
179,09	-93,936
179,31	224,652
179,53	411,068
179,75	126,130
179,96	322,198
180,18	-256,231
180,40	428,583
180,62	316,379
180,83	-16,632
181,05	-400,915
181,27	-8575,000
181,49	79,185
181,70	57,212
181,92	431,853
182,14	280,648
182,36	59,321
182,58	508,250
182,79	761,496
183,01	-21,321
183,23	188,984
183,45	-314,385
183,66	157,190
183,88	161,618
184,10	-2823,182
184,32	188,304
184,53	145,051
184,75	-118,381
184,97	72,313
185,18	-251,269
185,40	-218,630
185,62	127,219
185,84	65,884
186,05	119,515
186,27	-42,756
186,49	1887,500
186,71	-25,000
186,92	150,756
187,14	7,097
187,36	133,076
187,58	22,647
187,79	44,415
188,01	128,709
188,23	-280,043
188,45	132,355
188,66	251,228
188,88	-810,455
189,10	-1741,750
189,31	72,910
189,53	242,290
189,75	301,761
189,97	105,673
190,18	326,502
190,40	315,147
190,62	-146,285
190,83	-14,932
191,05	76,590
191,27	57,929
191,49	266,275
191,70	-287,861
191,92	-461,653
192,14	21,958
192,35	540,782
192,57	2816,429
192,79	-101,124
193,01	-29,450
193,22	104,995
193,44	-145,179
193,66	103,713
193,87	41,488
194,09	-27,938
194,31	113,462
194,53	638,986
194,74	63,185
194,96	19,022
195,18	177,094
195,39	34,367
195,61	-86,307
195,83	-257,337
196,04	111,168
196,26	-201,382
196,48	62,251
196,70	74,304
196,91	-38,160
197,13	99,177
197,35	-122,133
197,56	391,563
197,78	1454,291
198,00	-84,790
198,21	-37,015
198,43	-766,715
198,65	130,150
198,86	302,788
199,08	131,393
199,30	101,164
199,51	-206,759
199,73	141,904
199,95	301,918
200,16	607,596
200,38	222,669
200,60	96,969
200,81	151,338
201,03	6,182
201,25	-1264,750
201,46	142,707
201,68	75,943
201,90	-316,477
202,11	-156,393
202,33	120,422
202,55	433,437
202,76	-3,633
202,98	73,780
203,20	-166,707
203,41	-310,395
203,63	52,997
203,85	-79675,000
204,06	-174,304
204,28	-231,024
204,50	111,976
204,71	123,277
204,93	-939,400
205,15	-12,123
205,36	-42,208
205,58	234,117
205,80	-147,361
206,01	79,860
206,23	82,095
206,45	164,406
206,66	87,129
206,88	-21,975
207,10	215,852
207,31	245,000
207,53	219,929
207,75	-24,193
207,96	399,813
208,18	-88,353
208,39	28,412
208,61	2225,000
208,83	-166,680
209,04	133,994
209,26	-47,811
209,48	154,821
209,69	135,766
209,91	299,578
210,13	65,067
210,34	243,039
210,56	154,384
210,77	-528,150
210,99	19,240
211,21	1563,235
211,42	1,934
211,64	-15,780
211,86	74,427
212,07	238,692
212,29	220,473
212,50	70,825
212,72	122,981
212,94	106,020
213,15	141,774
213,37	117,189
213,58	-66,907
213,80	-2813,393
214,02	6063,235
214,23	204,516
214,45	329,098
214,67	-1048,476
214,88	43,708
215,10	-97,491
215,31	8,897
215,53	-64,375
215,75	271,609
215,96	1165,683
216,18	-196,127
216,39	143,359
216,61	164,138
216,83	-98,326
217,04	753,652
217,26	45,766
217,47	183,980
217,69	228,782
217,91	63,724
218,12	-12175,000
218,34	132,655
218,55	127,785
218,77	-32,251
218,99	138,452
219,20	-83,656
219,42	166,730
219,63	77,665
219,85	29,300
220,06	-112,404
220,28	92,059
220,50	100,727
220,71	110,794
220,93	2318,396
221,14	-1030,750
221,36	30,067
221,58	36,773
221,79	195,097
222,01	190,302
222,22	666,283
222,44	-1380,056
222,65	163,796
222,87	450,175
223,09	173,740
223,30	33,254
223,52	128,659
223,73	120,319
223,95	85,599
224,16	-0,876
224,38	33,116
224,60	60,556
224,81	-13,515
225,03	26,294
225,24	15,190
225,46	91,985
225,67	25,564
225,89	-8,802
226,10	378,238
226,32	1199,000
226,54	15,842
226,75	-30,419
226,97	94,671
227,18	121,002
227,40	68,692
227,61	69,948
227,83	-48,281
228,04	77,324
228,26	56,754
228,47	26,461
228,69	197,551
228,91	71,077
229,12	74,588
229,34	40,723
229,55	16,491
229,77	-39,510
229,98	-15,772
230,20	60,112
230,41	-15,172
230,63	70,319
230,84	-63,399
231,06	31,551
231,27	46,169
231,49	35,757
231,71	44,062
231,92	15,903
232,14	21,779
232,35	101,179
232,57	37,567
232,78	10,609
233,00	44,252
233,21	21,846
233,43	11,189
233,64	9,112
233,86	31,727
234,07	16,679
234,29	23,650
234,50	10,640
234,72	33,741
234,93	-13,036
235,15	26,913
235,36	27,741
235,58	18,698
235,79	25,564
236,01	13,429
236,22	13,026
236,44	15,855
236,65	26,157
236,87	11,985
237,08	4,505
237,30	-0,438
237,51	15,667
237,73	3,351
237,94	-1,131
238,16	17,370
238,37	14,431
238,59	3,701
238,80	25,836
239,02	-5,133
239,23	6,513
239,45	-11,292
239,66	17,734
239,88	21,638
240,09	22,715
240,31	-2,826
240,52	10,109
240,74	-1,024
240,95	6,855
241,17	4,753
241,38	-0,046
241,60	4,415
241,81	11,343
242,03	2,830
242,24	8,739
242,46	20,636
242,67	3,966
242,89	16,811
243,10	13,392
243,32	12,339
243,53	17,590
243,75	5,991
243,96	9,550
244,18	4,478
244,39	6,055
244,60	1,017
244,82	5,023
245,03	8,388
245,25	3,932
245,46	18,655
245,68	0,786
245,89	11,612
246,11	5,476
246,32	6,795
246,54	3,471
246,75	14,089
246,97	3,832
247,18	16,730
247,39	0,728
247,61	8,305
247,82	6,361
248,04	2,513
248,25	4,427
248,47	13,222
248,68	6,280
248,90	-4,722
249,11	8,740
249,33	10,829
249,54	9,014
249,75	8,434
249,97	5,339
250,18	10,852
250,40	12,807
250,61	-3,282
250,83	5,728
251,04	1,241
251,25	8,099
251,47	-0,627
251,68	6,568
251,90	6,026
252,11	8,672
252,33	5,662
252,54	2,365
252,76	6,200
252,97	1,216
253,18	-3,667
253,40	4,563
253,61	-3,206
253,83	7,867
254,04	9,645
254,25	2,783
254,47	5,947
254,68	4,172
254,90	3,352
255,11	4,766
255,33	4,271
255,54	2,512
255,75	4,185
255,97	3,877
256,18	1,961
256,40	3,752
256,61	7,105
256,82	-2,772
257,04	7,934
257,25	1,058
257,47	5,331
257,68	0,064
257,89	5,711
258,11	5,751
258,32	-1,692
258,54	7,061
258,75	7,352
258,96	6,894
259,18	2,944
259,39	3,287
259,61	6,118
259,82	1,899
260,03	6,244
260,25	5,121
260,46	2,757
260,68	0,689
260,89	1,501
261,10	3,422
261,32	3,610
261,53	5,017
261,75	9,011
261,96	0,188
262,17	9,691
262,39	6,735
262,60	0,306
262,81	-1,390
263,03	10,854
263,24	5,261
263,46	1,703
263,67	3,846
263,88	2,433
264,10	4,609
264,31	-2,342
264,52	5,925
264,74	7,122
264,95	3,662
265,17	3,024
265,38	5,270
265,59	9,530
265,81	3,274
266,02	2,729
266,23	1,133
266,45	9,770
266,66	8,698
266,87	2,791
267,09	1,095
267,30	3,786
267,52	5,599
267,73	4,255
267,94	5,931
268,16	7,184
268,37	5,368
268,58	5,437
268,80	3,554
269,01	2,430
269,22	2,287
269,44	4,710
269,65	5,614
269,86	3,518
270,08	6,887
270,29	0,739
270,50	2,957
270,72	4,713
270,93	0,890
271,14	-0,090
271,36	2,477
271,57	3,979
271,78	1,453
272,00	9,026
272,21	5,036
272,42	4,195
272,64	5,661
272,85	2,769
273,06	3,234
273,28	5,083
273,49	5,545
273,70	3,277
273,92	7,717
274,13	5,799
274,34	2,689
274,56	6,763
274,77	3,615
274,98	1,077
275,20	0,981
275,41	3,560
275,62	6,032
275,84	5,282
276,05	8,449
276,26	3,157
276,47	1,433
276,69	2,684
276,90	5,222
277,11	4,436
277,33	1,649
277,54	4,752
277,75	3,247
277,97	2,797
278,18	1,873
278,39	3,673
278,61	3,650
278,82	3,291
279,03	2,871
279,24	3,603
279,46	1,746
279,67	5,562
279,88	1,936
280,10	7,484
280,31	1,895
280,52	3,557
280,73	2,786
280,95	6,854
281,16	7,196
281,37	3,210
281,59	6,287
281,80	7,647
282,01	1,692
282,22	2,945
282,44	-0,173
282,65	8,247
282,86	4,824
283,08	5,584
283,29	6,497
283,50	4,182
283,71	5,518
283,93	5,127
284,14	6,744
284,35	3,011
284,56	3,718
284,78	2,891
284,99	7,469
285,20	5,111
285,42	5,091
285,63	3,939
285,84	1,739
286,05	2,298
286,27	3,821
286,48	1,414
286,69	3,611
286,90	3,821
287,12	3,742
287,33	2,760
287,54	2,097
287,75	3,292
287,97	5,881
288,18	4,024
288,39	1,115
288,60	2,706
288,82	4,836
289,03	2,513
289,24	4,218
289,45	5,424
289,67	2,947
289,88	0,782
290,09	5,316
290,30	4,321
290,52	2,913
290,73	1,925
290,94	0,894
291,15	3,300
291,37	5,558
291,58	5,738
291,79	4,578
292,00	3,904
292,21	6,562
292,43	4,013
292,64	2,846
292,85	0,844
293,06	4,669
293,28	1,959
293,49	1,070
293,70	4,962
293,91	4,589
294,12	2,880
294,34	3,227
294,55	4,552
294,76	3,568
294,97	7,049
295,19	0,309
295,40	4,098
295,61	5,330
295,82	1,844
296,03	4,172
296,25	1,979
296,46	0,499
296,67	3,591
296,88	-0,164
297,09	7,728
297,31	3,239
297,52	4,659
297,73	2,934
297,94	4,208
298,15	3,989
298,37	4,237
298,58	4,570
298,79	4,404
299,00	3,215
299,21	2,182
299,43	3,490
299,64	6,817
299,85	4,520
300,06	2,678
300,27	2,874
300,49	4,990
300,70	3,017
300,91	2,611
301,12	2,772
301,33	4,580
301,54	2,520
301,76	5,944
301,97	1,660
302,18	2,526
302,39	5,512
302,60	3,052
302,82	3,255
303,03	6,806
303,24	3,637
303,45	4,869
303,66	4,852
303,87	1,637
304,09	5,801
304,30	3,051
304,51	3,470
304,72	2,650
304,93	5,149
305,14	4,779
305,36	2,379
305,57	1,760
305,78	3,945
305,99	1,987
306,20	3,550
306,41	1,307
306,62	1,829
306,84	3,923
307,05	2,167
307,26	3,682
307,47	5,734
307,68	4,605
307,89	3,065
308,11	4,337
308,32	2,281
308,53	2,367
308,74	0,752
308,95	3,521
309,16	2,802
309,37	4,510
309,59	1,600
309,80	2,809
310,01	2,714
310,22	3,108
310,43	1,827
310,64	5,694
310,85	4,003
311,06	2,708
311,28	4,915
311,49	3,475
311,70	7,822
311,91	1,624
312,12	1,718
312,33	8,091
312,54	4,331
312,75	2,161
312,97	3,130
313,18	3,886
313,39	2,788
313,60	4,714
313,81	3,673
314,02	4,083
314,23	3,544
314,44	1,844
314,65	4,001
314,87	1,242
315,08	3,108
315,29	5,926
315,50	3,573
315,71	3,371
315,92	4,491
316,13	3,756
316,34	3,103
316,55	3,899
316,77	-1,399
316,98	4,014
317,19	1,825
317,40	3,782
317,61	7,640
317,82	1,906
318,03	-0,548
318,24	0,614
318,45	3,305
318,66	6,064
318,87	1,381
319,09	4,867
319,30	4,851
319,51	4,560
319,72	6,576
319,93	6,372
320,14	6,149
320,35	5,730
320,56	1,354
320,77	2,204
320,98	6,704
321,19	3,874
321,40	3,610
321,62	5,846
321,83	3,690
322,04	5,549
322,25	1,437
322,46	5,208
322,67	4,475
322,88	2,879
323,09	4,841
323,30	3,688
323,51	6,468
323,72	7,349
323,93	1,212
324,14	3,143
324,35	1,929
324,56	-0,290
324,77	2,680
324,99	2,928
325,20	2,923
325,41	4,569
325,62	2,190
325,83	2,305
326,04	4,246
326,25	4,176
326,46	3,936
326,67	6,389
326,88	5,651
327,09	1,929
327,30	3,889
327,51	5,285
327,72	2,648
327,93	4,054
328,14	0,605
328,35	3,364
328,56	3,565
328,77	4,600
328,98	5,209
329,19	3,324
329,40	5,143
329,61	4,576
329,82	1,227
330,04	2,413
330,25	2,642
330,46	3,903
330,67	1,670
330,88	2,310
331,09	3,112
331,30	2,216
331,51	3,164
331,72	4,115
331,93	3,972
332,14	4,231
332,35	5,405
332,56	3,501
332,77	3,511
332,98	2,693
333,19	5,139
333,40	2,605
333,61	1,803
333,82	5,064
334,03	2,203
334,24	3,626
334,45	4,545
334,66	4,646
334,87	4,282
335,08	1,312
335,29	2,611
335,50	1,540
335,71	2,164
335,92	2,898
336,13	2,554
336,34	-0,389
336,55	2,745
336,76	2,296
336,97	3,373
337,18	1,728
337,39	3,776
337,60	4,265
337,81	1,999
338,02	-0,068
338,23	2,857
338,44	5,450
338,65	2,990
338,86	4,195
339,07	2,277
339,28	5,279
339,49	3,901
339,70	4,464
339,91	3,127
340,11	6,112
340,32	3,189
340,53	2,560
340,74	-1,029
340,95	0,779
341,16	4,839
341,37	3,383
341,58	0,983
341,79	5,535
342,00	3,190
342,21	1,771
342,42	2,436
342,63	2,331
342,84	1,232
343,05	3,322
343,26	2,389
343,47	3,488
343,68	2,384
343,89	3,660
344,10	3,795
344,31	6,280
344,52	2,689
344,73	1,484
344,94	4,897
345,14	4,564
345,35	5,159
345,56	3,302
345,77	4,476
345,98	1,167
346,19	5,284
346,40	2,679
346,61	1,547
346,82	3,479
347,03	2,014
347,24	3,829
347,45	3,123
347,66	3,858
347,87	0,364
348,08	3,044
348,28	2,211
348,49	4,793
348,70	4,796
348,91	5,194
349,12	1,527
349,33	14,015
349,54	2,884
349,75	3,651
349,96	3,018
350,17	2,159
350,38	4,020
350,59	4,187
350,80	5,413
351,00	5,603
351,21	8,036
351,42	3,509
351,63	1,761
351,84	3,256
352,05	5,071
352,26	2,060
352,47	2,643
352,68	5,000
352,89	2,605
353,09	3,218
353,30	2,092
353,51	2,652
353,72	6,262
353,93	6,065
354,14	1,033
354,35	4,163
354,56	5,210
354,77	1,398
354,98	0,464
355,18	5,158
355,39	8,601
355,60	3,018
355,81	2,773
356,02	5,913
356,23	2,941
356,44	1,545
356,65	1,242
356,85	9,372
357,06	4,185
357,27	3,354
357,48	1,545
357,69	2,609
357,90	4,082
358,11	3,759
358,32	3,059
358,52	8,997
358,73	3,324
358,94	1,452
359,15	2,724
359,36	4,488
359,57	2,929
359,78	2,755
359,98	1,937
360,19	2,335
360,40	2,571
360,61	6,167
360,82	2,342
361,03	5,721
361,24	3,742
361,44	1,468
361,65	1,288
361,86	1,889
362,07	4,750
362,28	3,023
362,49	0,838
362,70	4,548
362,90	5,919
363,11	1,558
363,32	0,663
363,53	3,623
363,74	5,834
363,95	3,847
364,15	3,964
364,36	6,737
364,57	5,011
364,78	4,741
364,99	3,209
365,20	4,253
365,40	5,797
365,61	4,093
365,82	5,298
366,03	4,404
366,24	4,093
366,45	3,236
366,65	4,339
366,86	3,915
367,07	7,843
367,28	5,186
367,49	2,836
367,69	7,932
367,90	2,491
368,11	4,713
368,32	4,863
368,53	4,276
368,73	4,706
368,94	2,716
369,15	2,516
369,36	4,028
369,57	4,544
369,78	2,920
369,98	4,778
370,19	7,839
370,40	2,100
370,61	-0,263
370,82	2,843
371,02	5,113
371,23	7,690
371,44	1,153
371,65	4,825
371,85	6,669
372,06	6,079
372,27	4,881
372,48	3,730
372,69	2,800
372,89	0,962
373,10	3,500
373,31	1,603
373,52	2,673
373,73	4,321
373,93	3,987
374,14	2,867
374,35	10,151
374,56	6,253
374,76	5,030
374,97	2,301
375,18	4,479
375,39	3,544
375,60	5,492
375,80	6,298
376,01	1,464
376,22	6,145
376,43	6,391
376,63	4,517
376,84	1,454
377,05	3,649
377,26	0,752
377,46	4,458
377,67	3,802
377,88	5,746
378,09	5,937
378,29	-1,251
378,50	5,680
378,71	3,080
378,92	4,693
379,12	2,506
379,33	1,565
379,54	2,445
379,75	4,565
379,95	3,931
380,16	4,885
380,37	6,587
380,58	3,482
380,78	7,398
380,99	1,318
381,20	4,173
381,41	5,263
381,61	6,842
381,82	5,024
382,03	5,542
382,24	4,663
382,44	4,990
382,65	7,551
382,86	4,757
383,06	4,426
383,27	5,728
383,48	2,575
383,69	4,212
383,89	4,323
384,10	6,707
384,31	5,050
384,51	8,680
384,72	5,404
384,93	1,727
385,14	6,286
385,34	9,353
385,55	3,422
385,76	3,791
385,96	5,826
386,17	7,344
386,38	8,723
386,59	8,679
386,79	3,789
387,00	11,836
387,21	7,895
387,41	6,326
387,62	5,111
387,83	5,689
388,03	4,593
388,24	2,816
388,45	6,933
388,66	7,449
388,86	6,092
389,07	8,174
389,28	10,267
389,48	6,880
389,69	7,730
389,90	7,949
390,10	11,093
390,31	8,633
390,52	3,071
390,72	7,228
390,93	6,547
391,14	8,778
391,34	8,249
391,55	11,544
391,76	10,834
391,96	8,480
392,17	10,407
392,38	14,025
392,58	7,040
392,79	10,191
393,00	10,465
393,20	11,003
393,41	10,774
393,62	6,601
393,82	10,240
394,03	9,497
394,24	9,432
394,44	13,188
394,65	9,781
394,86	10,975
395,06	12,388
395,27	8,604
395,48	8,787
395,68	11,232
395,89	12,772
396,10	13,602
396,30	7,458
396,51	9,702
396,72	11,524
396,92	12,603
397,13	14,563
397,34	10,311
397,54	15,962
397,75	12,988
397,95	12,241
398,16	15,785
398,37	14,245
398,57	15,146
398,78	15,700
398,99	21,414
399,19	17,422
399,40	17,116
399,60	16,524
399,81	15,010
400,02	19,897
400,22	18,489
400,43	18,444
400,64	15,930
400,84	16,571
401,05	18,502
401,25	17,022
401,46	20,907
401,67	18,191
401,87	18,571
402,08	13,930
402,29	12,825
402,49	18,384
402,70	20,179
402,90	19,116
403,11	21,877
403,32	18,856
403,52	18,352
403,73	22,859
403,93	21,674
404,14	25,123
404,35	25,274
404,55	17,326
404,76	18,662
404,96	22,237
405,17	22,168
405,38	24,259
405,58	20,899
405,79	25,334
405,99	23,913
406,20	21,538
406,40	20,006
406,61	27,647
406,82	22,751
407,02	27,683
407,23	24,791
407,43	23,570
407,64	24,622
407,85	22,097
408,05	20,216
408,26	32,157
408,46	28,870
408,67	23,762
408,87	26,321
409,08	25,416
409,29	27,621
409,49	26,357
409,70	28,445
409,90	30,009
410,11	26,824
410,31	31,386
410,52	26,598
410,72	27,887
410,93	32,261
411,14	28,810
411,34	28,525
411,55	31,186
411,75	30,767
411,96	31,712
412,16	31,239
412,37	28,175
412,57	30,303
412,78	27,369
412,99	27,749
413,19	30,656
413,40	30,128
413,60	28,923
413,81	28,107
414,01	30,970
414,22	32,782
414,42	33,688
414,63	28,107
414,83	36,993
415,04	35,932
415,24	35,030
415,45	33,013
415,65	30,321
415,86	34,903
416,07	36,036
416,27	34,575
416,48	36,293
416,68	36,169
416,89	30,446
417,09	34,318
417,30	33,456
417,50	34,674
417,71	39,838
417,91	36,431
418,12	34,742
418,32	33,595
418,53	34,293
418,73	38,575
418,94	34,274
419,14	35,454
419,35	31,819
419,55	35,474
419,76	37,844
419,96	36,830
420,17	34,250
420,37	31,888
420,58	37,427
420,78	33,415
420,99	36,288
421,19	38,491
421,40	35,598
421,60	37,359
421,81	35,366
422,01	38,097
422,22	36,114
422,42	38,601
422,63	39,468
422,83	35,445
423,04	42,296
423,24	39,148
423,45	37,847
423,65	39,516
423,86	39,484
424,06	41,460
424,27	36,375
424,47	35,480
424,67	35,125
424,88	40,470
425,08	39,943
425,29	44,045
425,49	40,186
425,70	33,793
425,90	40,915
426,11	36,714
426,31	39,012
426,52	36,693
426,72	40,524
426,93	39,439
427,13	40,179
427,33	39,440
427,54	39,789
427,74	45,497
427,95	43,080
428,15	35,567
428,36	42,137
428,56	41,253
428,77	39,482
428,97	38,681
429,18	39,464
429,38	39,255
429,58	41,775
429,79	43,554
429,99	42,571
430,20	33,721
430,40	45,272
430,61	40,464
430,81	38,468
431,01	41,959
431,22	45,224
431,42	42,201
431,63	37,315
431,83	38,050
432,04	41,822
432,24	45,175
432,44	39,575
432,65	38,417
432,85	33,023
433,06	42,584
433,26	39,005
433,47	35,367
433,67	43,257
433,87	38,654
434,08	39,822
434,28	39,160
434,49	41,510
434,69	41,203
434,89	36,251
435,10	39,285
435,30	38,370
435,51	38,245
435,71	39,517
435,91	39,727
436,12	36,784
436,32	40,057
436,53	37,775
436,73	38,310
436,93	42,553
437,14	39,264
437,34	43,432
437,55	37,981
437,75	44,988
437,95	41,788
438,16	41,687
438,36	40,148
438,57	41,493
438,77	40,662
438,97	41,415
439,18	44,275
439,38	39,163
439,58	38,406
439,79	43,390
439,99	38,878
440,20	45,975
440,40	44,001
440,60	46,043
440,81	44,086
441,01	39,674
441,21	42,047
441,42	44,405
441,62	45,469
441,83	41,174
442,03	41,998
442,23	41,802
442,44	39,301
442,64	40,586
442,84	39,114
443,05	46,834
443,25	39,547
443,45	39,829
443,66	41,899
443,86	39,898
444,06	39,070
444,27	41,829
444,47	42,837
444,67	41,912
444,88	44,136
445,08	43,951
445,28	43,428
445,49	42,638
445,69	40,474
445,90	43,916
446,10	41,994
446,30	43,611
446,51	43,599
446,71	44,277
446,91	49,093
447,12	48,363
447,32	40,972
447,52	42,323
447,72	42,423
447,93	42,672
448,13	40,723
448,33	49,486
448,54	46,539
448,74	40,833
448,94	42,162
449,15	43,461
449,35	46,819
449,55	42,852
449,76	44,716
449,96	46,164
450,16	44,424
450,37	42,439
450,57	43,250
450,77	42,335
450,98	47,755
451,18	48,105
451,38	44,936
451,58	48,403
451,79	47,273
451,99	46,822
452,19	44,568
452,40	47,474
452,60	40,795
452,80	42,036
453,00	48,918
453,21	42,716
453,41	44,354
453,61	45,844
