Fichero De Datos De SpectraSuite
++++++++++++++++++++++++++++++++++++
Fecha: Wed Apr 22 10:58:13 CEST 2009
Usuario: evoflor
Presente Oscuro Del Espectro: Sí
La Referencia de Presente Del Espectro De: Sí
Muestreados de los componentes de Número de espectros: 1
Espectrómetros: USB4F02353
Tiempo de integración (usec): 500000 (USB4F02353)
Promedio de Espectros Hechos un: 5 (USB4F02353)
El Alisar Del Furgón: 0 (USB4F02353)
Párrafo de de Corregir del la del del de Eléctrica del obscuridad: Sí (USB4F02353)
Estrobo/Lámpara Permitido: No (USB4F02353)
Correct for Detector Non-linearity: No (USB4F02353)
Párrafo de de Corregir del la del del de Externa del luz: No (USB4F02353)
Procesado del espectro de Número de pixeles en: 3648
>>>>> Comienza Data<<<<< Espectral Procesado Del EL
177,79	163,491
178,00	163,491
178,22	163,491
178,44	595,824
178,66	-88,912
178,88	68,143
179,09	-71,830
179,31	218,748
179,53	528,731
179,75	368,012
179,96	440,345
180,18	-123,938
180,40	308,854
180,62	620,106
180,83	36,281
181,05	-1424,146
181,27	-33980,000
181,49	217,652
181,70	116,846
181,92	368,934
182,14	384,277
182,36	-1,300
182,58	362,200
182,79	577,589
183,01	7,935
183,23	157,240
183,45	-112,862
183,66	64,690
183,88	369,294
184,10	-2172,364
184,32	213,317
184,53	210,376
184,75	-128,408
184,97	15,382
185,18	-53,722
185,40	-470,577
185,62	80,592
185,84	266,769
186,05	141,304
186,27	-54,106
186,49	5045,385
186,71	16,820
186,92	63,942
187,14	-109,914
187,36	45,878
187,58	42,118
187,79	23,587
188,01	177,713
188,23	-221,818
188,45	123,344
188,66	292,321
188,88	-1714,182
189,10	-231,800
189,31	115,563
189,53	-20,109
189,75	296,091
189,97	262,231
190,18	153,562
190,40	522,824
190,62	-40,252
190,83	-24,086
191,05	195,676
191,27	284,800
191,49	304,653
191,70	-219,615
191,92	-1012,542
192,14	-18,988
192,35	452,997
192,57	585,143
192,79	-119,957
193,01	231,125
193,22	100,768
193,44	-67,201
193,66	89,378
193,87	16,874
194,09	-33,058
194,31	50,864
194,53	451,608
194,74	143,355
194,96	56,113
195,18	89,516
195,39	-303,377
195,61	-91,450
195,83	-189,304
196,04	120,293
196,26	-464,724
196,48	-62,569
196,70	92,604
196,91	30,151
197,13	170,329
197,35	63,373
197,56	372,693
197,78	1670,746
198,00	608,951
198,21	536,311
198,43	-605,698
198,65	138,182
198,86	426,547
199,08	199,934
199,30	105,223
199,51	-151,726
199,73	135,777
199,95	220,000
200,16	476,846
200,38	255,459
200,60	80,571
200,81	356,060
201,03	45,870
201,25	-1563,800
201,46	135,883
201,68	153,327
201,90	4699,545
202,11	-112,519
202,33	48,079
202,55	-239,000
202,76	-34,760
202,98	322,230
203,20	117,885
203,41	-178,842
203,63	93,067
203,85	-92480,000
204,06	-17,216
204,28	-10,313
204,50	96,371
204,71	230,177
204,93	-282,560
205,15	12,892
205,36	-77,017
205,58	227,601
205,80	-17,317
206,01	109,830
206,23	63,060
206,45	118,869
206,66	104,349
206,88	-16,269
207,10	154,955
207,31	340,636
207,53	-10,914
207,75	98,780
207,96	340,896
208,18	-179,317
208,39	109,151
208,61	1922,286
208,83	-199,315
209,04	51,563
209,26	21,751
209,48	416,461
209,69	153,516
209,91	348,919
210,13	29,192
210,34	21,259
210,56	149,170
210,77	-869,921
210,99	83,793
211,21	6392,941
211,42	-142,891
211,64	-21,864
211,86	111,588
212,07	237,688
212,29	221,489
212,50	62,695
212,72	47,615
212,94	177,128
213,15	90,375
213,37	101,483
213,58	-91,308
213,80	-2499,286
214,02	5969,412
214,23	290,292
214,45	353,377
214,67	342,927
214,88	-243,893
215,10	-251,549
215,31	84,017
215,53	-113,000
215,75	173,357
215,96	1016,025
216,18	-345,352
216,39	154,910
216,61	345,371
216,83	232,054
217,04	1089,663
217,26	-46,806
217,47	156,064
217,69	191,969
217,91	114,227
218,12	-72680,000
218,34	156,628
218,55	28,064
218,77	70,873
218,99	137,756
219,20	-69,492
219,42	341,280
219,63	-30,235
219,85	-135,756
220,06	75,308
220,28	132,121
220,50	46,372
220,71	93,006
220,93	2203,396
221,14	-996,800
221,36	43,442
221,58	90,400
221,79	143,293
222,01	479,138
222,22	726,842
222,44	-214,831
222,65	83,348
222,87	1099,860
223,09	130,994
223,30	42,815
223,52	55,980
223,73	103,501
223,95	-54,817
224,16	144,289
224,38	234,076
224,60	131,400
224,81	14,107
225,03	87,974
225,24	159,122
225,46	90,831
225,67	-40,062
225,89	31,518
226,10	354,458
226,32	754,240
226,54	-11,218
226,75	16,261
226,97	55,935
227,18	108,134
227,40	59,877
227,61	24,742
227,83	36,298
228,04	62,556
228,26	63,258
228,47	38,397
228,69	92,237
228,91	116,862
229,12	100,560
229,34	31,339
229,55	47,988
229,77	7,925
229,98	12,024
230,20	40,115
230,41	38,570
230,63	77,812
230,84	-43,356
231,06	36,464
231,27	1,013
231,49	62,830
231,71	25,889
231,92	22,682
232,14	35,272
232,35	58,849
232,57	-5,277
232,78	24,114
233,00	37,833
233,21	25,009
233,43	1,169
233,64	22,389
233,86	21,521
234,07	13,217
234,29	12,977
234,50	9,759
234,72	39,817
234,93	-10,730
235,15	30,397
235,36	11,054
235,58	-1,222
235,79	28,189
236,01	11,538
236,22	-2,116
236,44	47,086
236,65	29,146
236,87	16,187
237,08	5,109
237,30	11,109
237,51	4,572
237,73	1,060
237,94	9,448
238,16	15,241
238,37	3,363
238,59	8,436
238,80	10,047
239,02	3,398
239,23	20,898
239,45	-9,555
239,66	16,626
239,88	16,514
240,09	21,226
240,31	4,564
240,52	6,012
240,74	13,489
240,95	5,205
241,17	10,018
241,38	8,270
241,60	5,670
241,81	12,764
242,03	9,617
242,24	7,791
242,46	7,640
242,67	7,752
242,89	2,815
243,10	13,699
243,32	12,977
243,53	3,890
243,75	4,170
243,96	2,582
244,18	5,077
244,39	5,558
244,60	11,749
244,82	0,735
245,03	9,030
245,25	8,779
245,46	14,016
245,68	3,121
245,89	11,910
246,11	5,222
246,32	4,557
246,54	5,395
246,75	5,125
246,97	5,951
247,18	13,295
247,39	4,660
247,61	4,635
247,82	4,299
248,04	3,655
248,25	1,677
248,47	11,968
248,68	4,412
248,90	5,571
249,11	9,544
249,33	8,515
249,54	2,833
249,75	8,291
249,97	1,793
250,18	8,911
250,40	13,166
250,61	-3,898
250,83	6,345
251,04	-4,337
251,25	10,456
251,47	-2,477
251,68	9,270
251,90	6,135
252,11	9,566
252,33	6,251
252,54	2,984
252,76	5,980
252,97	-0,250
253,18	-0,109
253,40	5,110
253,61	0,416
253,83	9,873
254,04	4,461
254,25	3,426
254,47	4,590
254,68	3,520
254,90	0,477
255,11	3,451
255,33	2,729
255,54	-0,199
255,75	1,689
255,97	-0,144
256,18	4,657
256,40	4,269
256,61	6,041
256,82	1,180
257,04	10,093
257,25	-0,481
257,47	1,471
257,68	2,849
257,89	4,896
258,11	2,347
258,32	2,749
258,54	6,651
258,75	5,887
258,96	2,459
259,18	2,022
259,39	-0,440
259,61	2,036
259,82	5,161
260,03	4,985
260,25	2,742
260,46	0,664
260,68	1,950
260,89	3,630
261,10	3,067
261,32	4,869
261,53	2,996
261,75	7,022
261,96	-3,628
262,17	10,127
262,39	10,987
262,60	0,885
262,81	0,945
263,03	6,363
263,24	4,199
263,46	-0,256
263,67	4,122
263,88	2,933
264,10	5,035
264,31	-1,462
264,52	4,836
264,74	6,367
264,95	1,546
265,17	6,549
265,38	2,376
265,59	4,400
265,81	7,541
266,02	2,181
266,23	1,755
266,45	7,891
266,66	8,206
266,87	6,754
267,09	1,064
267,30	3,906
267,52	3,576
267,73	3,167
267,94	7,129
268,16	5,551
268,37	3,618
268,58	1,846
268,80	4,913
269,01	1,789
269,22	4,307
269,44	2,209
269,65	3,362
269,86	-1,378
270,08	4,234
270,29	3,435
270,50	6,012
270,72	3,902
270,93	2,826
271,14	-1,287
271,36	0,321
271,57	3,045
271,78	2,066
272,00	4,956
272,21	6,207
272,42	3,586
272,64	4,295
272,85	-0,192
273,06	3,431
273,28	8,039
273,49	5,445
273,70	3,285
273,92	3,471
274,13	4,832
274,34	3,026
274,56	2,457
274,77	0,525
274,98	3,538
275,20	4,020
275,41	5,563
275,62	4,406
275,84	1,676
276,05	8,251
276,26	0,203
276,47	2,113
276,69	3,952
276,90	5,337
277,11	0,965
277,33	1,483
277,54	3,403
277,75	3,805
277,97	0,918
278,18	2,727
278,39	4,524
278,61	1,947
278,82	3,367
279,03	2,947
279,24	4,099
279,46	4,547
279,67	5,668
279,88	1,607
280,10	4,981
280,31	1,255
280,52	4,417
280,73	1,277
280,95	3,511
281,16	5,202
281,37	3,281
281,59	8,751
281,80	6,626
282,01	3,676
282,22	2,360
282,44	-0,577
282,65	6,387
282,86	7,543
283,08	1,270
283,29	2,969
283,50	3,155
283,71	4,363
283,93	4,395
284,14	8,259
284,35	1,127
284,56	3,881
284,78	1,766
284,99	5,786
285,20	5,297
285,42	5,796
285,63	2,628
285,84	1,285
286,05	1,392
286,27	2,969
286,48	-1,167
286,69	1,484
286,90	3,160
287,12	2,229
287,33	0,474
287,54	3,290
287,75	3,092
287,97	2,954
288,18	1,190
288,39	2,135
288,60	2,083
288,82	3,686
289,03	1,686
289,24	2,526
289,45	4,771
289,67	2,186
289,88	1,640
290,09	4,217
290,30	4,544
290,52	1,131
290,73	2,066
290,94	0,708
291,15	4,572
291,37	4,407
291,58	3,256
291,79	4,237
292,00	3,697
292,21	3,818
292,43	2,182
292,64	2,165
292,85	1,493
293,06	2,982
293,28	1,387
293,49	0,970
293,70	4,298
293,91	5,783
294,12	3,067
294,34	3,677
294,55	1,719
294,76	3,416
294,97	3,874
295,19	0,154
295,40	4,451
295,61	3,988
295,82	2,571
296,03	3,081
296,25	2,214
296,46	1,093
296,67	1,909
296,88	-0,943
297,09	6,997
297,31	1,238
297,52	4,311
297,73	2,547
297,94	4,729
298,15	2,653
298,37	2,081
298,58	4,376
298,79	5,618
299,00	0,952
299,21	2,592
299,43	2,207
299,64	5,656
299,85	2,590
300,06	1,103
300,27	0,019
300,49	5,898
300,70	2,764
300,91	4,504
301,12	3,126
301,33	4,097
301,54	2,402
301,76	4,021
301,97	2,206
302,18	0,790
302,39	5,424
302,60	4,374
302,82	3,064
303,03	4,885
303,24	3,150
303,45	3,287
303,66	2,239
303,87	3,102
304,09	4,443
304,30	2,035
304,51	1,411
304,72	3,035
304,93	3,476
305,14	2,687
305,36	0,262
305,57	0,407
305,78	6,099
305,99	1,099
306,20	1,555
306,41	1,141
306,62	0,143
306,84	1,634
307,05	1,634
307,26	3,356
307,47	6,132
307,68	1,719
307,89	1,484
308,11	4,880
308,32	2,804
308,53	-0,077
308,74	0,486
308,95	3,137
309,16	2,381
309,37	5,154
309,59	0,465
309,80	2,270
310,01	0,308
310,22	4,208
310,43	0,536
310,64	3,289
310,85	3,352
311,06	2,269
311,28	3,091
311,49	3,238
311,70	6,087
311,91	0,980
312,12	2,292
312,33	5,157
312,54	4,218
312,75	-0,320
312,97	0,983
313,18	2,947
313,39	1,820
313,60	2,393
313,81	3,363
314,02	2,957
314,23	5,489
314,44	1,681
314,65	2,895
314,87	0,972
315,08	1,428
315,29	7,470
315,50	3,332
315,71	3,928
315,92	6,541
316,13	4,858
316,34	1,708
316,55	5,199
316,77	0,271
316,98	1,907
317,19	0,477
317,40	5,109
317,61	6,818
317,82	2,702
318,03	-0,834
318,24	1,472
318,45	4,061
318,66	4,247
318,87	0,238
319,09	3,568
319,30	3,566
319,51	4,270
319,72	5,913
319,93	3,460
320,14	5,433
320,35	3,557
320,56	0,441
320,77	3,616
320,98	6,684
321,19	6,041
321,40	1,960
321,62	6,603
321,83	3,696
322,04	5,502
322,25	1,792
322,46	8,128
322,67	4,970
322,88	4,630
323,09	2,253
323,30	3,536
323,51	3,418
323,72	4,960
323,93	1,345
324,14	2,916
324,35	0,121
324,56	0,954
324,77	0,361
324,99	1,341
325,20	0,272
325,41	2,438
325,62	3,333
325,83	0,930
326,04	-0,125
326,25	4,254
326,46	1,710
326,67	2,924
326,88	1,702
327,09	1,048
327,30	2,961
327,51	4,217
327,72	4,690
327,93	4,644
328,14	-5,872
328,35	4,328
328,56	5,247
328,77	3,112
328,98	4,150
329,19	3,616
329,40	6,329
329,61	2,363
329,82	1,930
330,04	2,656
330,25	-0,006
330,46	1,206
330,67	2,917
330,88	1,846
331,09	4,600
331,30	1,479
331,51	3,990
331,72	2,193
331,93	3,556
332,14	1,279
332,35	4,699
332,56	3,321
332,77	4,595
332,98	0,230
333,19	2,254
333,40	2,215
333,61	3,782
333,82	2,931
334,03	3,383
334,24	2,847
334,45	4,927
334,66	4,963
334,87	3,467
335,08	2,458
335,29	0,630
335,50	-0,542
335,71	2,039
335,92	3,856
336,13	6,488
336,34	1,148
336,55	5,641
336,76	4,955
336,97	2,728
337,18	-0,033
337,39	2,162
337,60	1,736
337,81	1,950
338,02	1,499
338,23	2,701
338,44	3,014
338,65	2,338
338,86	4,228
339,07	1,511
339,28	5,546
339,49	3,404
339,70	0,077
339,91	2,368
340,11	7,380
340,32	-0,197
340,53	0,422
340,74	2,641
340,95	1,906
341,16	4,171
341,37	1,325
341,58	0,408
341,79	3,372
342,00	2,219
342,21	2,879
342,42	0,701
342,63	2,446
342,84	2,059
343,05	4,549
343,26	4,636
343,47	0,755
343,68	-0,656
343,89	4,599
344,10	4,311
344,31	5,028
344,52	4,506
344,73	2,321
344,94	4,376
345,14	3,026
345,35	4,568
345,56	2,701
345,77	1,845
345,98	2,545
346,19	4,152
346,40	2,628
346,61	0,857
346,82	1,936
347,03	-0,119
347,24	4,592
347,45	3,382
347,66	7,843
347,87	2,346
348,08	1,918
348,28	-0,577
348,49	6,044
348,70	6,240
348,91	4,199
349,12	-1,148
349,33	13,177
349,54	0,590
349,75	5,461
349,96	3,352
350,17	6,311
350,38	2,624
350,59	4,976
350,80	4,056
351,00	4,601
351,21	5,707
351,42	2,919
351,63	-3,106
351,84	4,322
352,05	3,049
352,26	0,750
352,47	4,081
352,68	1,075
352,89	1,797
353,09	6,310
353,30	-1,362
353,51	2,120
353,72	7,136
353,93	3,821
354,14	-0,254
354,35	2,276
354,56	4,399
354,77	3,593
354,98	0,950
355,18	3,167
355,39	6,567
355,60	2,158
355,81	3,102
356,02	5,047
356,23	2,282
356,44	5,210
356,65	4,000
356,85	5,461
357,06	6,455
357,27	5,758
357,48	2,362
357,69	4,060
357,90	2,390
358,11	0,980
358,32	1,067
358,52	4,660
358,73	2,445
358,94	-1,922
359,15	4,536
359,36	5,338
359,57	3,573
359,78	5,562
359,98	2,124
360,19	-0,700
360,40	5,575
360,61	6,604
360,82	-0,405
361,03	6,733
361,24	2,951
361,44	1,293
361,65	2,354
361,86	1,006
362,07	4,358
362,28	2,285
362,49	0,236
362,70	2,718
362,90	3,541
363,11	1,446
363,32	0,979
363,53	6,885
363,74	2,537
363,95	6,675
364,15	3,558
364,36	5,312
364,57	4,596
364,78	1,419
364,99	6,205
365,20	5,919
365,40	4,025
365,61	-0,325
365,82	7,500
366,03	3,149
366,24	3,203
366,45	1,327
366,65	2,081
366,86	1,607
367,07	5,742
367,28	4,069
367,49	3,526
367,69	7,439
367,90	4,331
368,11	5,980
368,32	1,471
368,53	6,620
368,73	5,270
368,94	5,423
369,15	3,133
369,36	4,903
369,57	4,582
369,78	2,053
369,98	5,659
370,19	7,728
370,40	4,498
370,61	3,722
370,82	6,133
371,02	2,385
371,23	8,189
371,44	4,096
371,65	5,519
371,85	6,136
372,06	2,711
372,27	3,964
372,48	5,107
372,69	0,524
372,89	-0,399
373,10	0,186
373,31	2,775
373,52	3,284
373,73	7,332
373,93	4,605
374,14	2,999
374,35	7,777
374,56	8,146
374,76	2,605
374,97	2,371
375,18	3,984
375,39	4,881
375,60	4,404
375,80	2,604
376,01	4,306
376,22	3,768
376,43	3,001
376,63	4,798
376,84	1,430
377,05	5,150
377,26	3,286
377,46	1,315
377,67	4,611
377,88	4,959
378,09	4,103
378,29	1,846
378,50	5,153
378,71	5,210
378,92	2,256
379,12	3,365
379,33	2,489
379,54	3,261
379,75	5,701
379,95	4,590
380,16	4,892
380,37	6,691
380,58	3,552
380,78	7,436
380,99	3,198
381,20	6,822
381,41	2,981
381,61	5,799
381,82	3,908
382,03	3,392
382,24	5,023
382,44	4,554
382,65	6,026
382,86	4,997
383,06	3,406
383,27	5,604
383,48	3,943
383,69	7,777
383,89	6,046
384,10	6,380
384,31	4,499
384,51	6,481
384,72	5,890
384,93	6,766
385,14	4,117
385,34	10,259
385,55	5,557
385,76	3,932
385,96	6,487
386,17	6,527
386,38	9,662
386,59	7,156
386,79	6,355
387,00	6,718
387,21	6,768
387,41	7,102
387,62	6,498
387,83	11,804
388,03	5,417
388,24	1,424
388,45	7,314
388,66	7,793
388,86	10,764
389,07	4,899
389,28	13,816
389,48	5,004
389,69	6,822
389,90	6,056
390,10	10,273
390,31	10,842
390,52	2,680
390,72	8,116
390,93	8,842
391,14	7,617
391,34	10,595
391,55	9,971
391,76	11,703
391,96	8,211
392,17	9,168
392,38	12,336
392,58	7,757
392,79	5,272
393,00	7,602
393,20	7,424
393,41	6,045
393,62	9,295
393,82	9,119
394,03	9,338
394,24	10,551
394,44	12,090
394,65	10,019
394,86	9,338
395,06	11,994
395,27	5,682
395,48	11,291
395,68	12,589
395,89	12,429
396,10	11,432
396,30	9,334
396,51	7,692
396,72	13,438
396,92	8,022
397,13	10,155
397,34	7,787
397,54	13,581
397,75	8,264
397,95	6,218
398,16	10,913
398,37	10,178
398,57	12,501
398,78	15,326
398,99	13,138
399,19	11,202
399,40	13,496
399,60	10,196
399,81	11,965
400,02	12,357
400,22	16,346
400,43	10,052
400,64	14,506
400,84	10,087
401,05	12,785
401,25	16,482
401,46	13,794
401,67	13,647
401,87	12,737
402,08	10,294
402,29	10,414
402,49	12,990
402,70	14,469
402,90	12,070
403,11	13,010
403,32	13,787
403,52	11,645
403,73	15,517
403,93	16,880
404,14	18,789
404,35	14,717
404,55	14,149
404,76	13,666
404,96	17,760
405,17	16,670
405,38	17,154
405,58	13,854
405,79	18,697
405,99	13,297
406,20	16,106
406,40	12,593
406,61	16,832
406,82	15,496
407,02	20,815
407,23	19,010
407,43	16,301
407,64	15,296
407,85	16,329
408,05	11,864
408,26	25,441
408,46	20,980
408,67	14,529
408,87	16,100
409,08	14,927
409,29	18,305
409,49	19,824
409,70	21,786
409,90	18,383
410,11	16,700
410,31	18,507
410,52	20,013
410,72	18,207
410,93	21,406
411,14	15,881
411,34	16,987
411,55	21,530
411,75	20,134
411,96	21,156
412,16	19,644
412,37	20,855
412,57	21,936
412,78	19,035
412,99	16,389
413,19	18,967
413,40	21,539
413,60	17,969
413,81	19,322
414,01	19,112
414,22	19,218
414,42	16,121
414,63	17,243
414,83	22,324
415,04	24,975
415,24	18,624
415,45	20,247
415,65	23,029
415,86	21,841
416,07	19,985
416,27	20,514
416,48	24,245
416,68	23,077
416,89	18,907
417,09	22,906
417,30	24,859
417,50	23,094
417,71	24,956
417,91	24,717
418,12	19,917
418,32	22,049
418,53	22,400
418,73	20,583
418,94	22,222
419,14	22,211
419,35	19,027
419,55	22,544
419,76	22,112
419,96	20,304
420,17	23,733
420,37	18,567
420,58	23,330
420,78	24,255
420,99	26,581
421,19	28,131
421,40	20,836
421,60	26,683
421,81	23,893
422,01	21,843
422,22	24,078
422,42	23,839
422,63	24,774
422,83	20,599
423,04	25,544
423,24	25,318
423,45	23,362
423,65	25,726
423,86	25,073
424,06	25,359
424,27	20,051
424,47	17,143
424,67	21,988
424,88	22,899
425,08	25,231
425,29	26,840
425,49	24,740
425,70	19,289
425,90	29,000
426,11	25,850
426,31	23,307
426,52	24,071
426,72	19,947
426,93	21,228
427,13	23,998
427,33	24,399
427,54	25,491
427,74	24,561
427,95	26,403
428,15	21,775
428,36	24,161
428,56	23,762
428,77	25,871
428,97	24,021
429,18	24,065
429,38	24,186
429,58	24,950
429,79	25,103
429,99	25,226
430,20	16,498
430,40	26,115
430,61	24,156
430,81	21,122
431,01	24,881
431,22	26,531
431,42	26,540
431,63	21,586
431,83	23,374
432,04	21,653
432,24	27,169
432,44	24,489
432,65	23,787
432,85	22,915
433,06	24,424
433,26	24,229
433,47	19,551
433,67	23,979
433,87	22,952
434,08	17,930
434,28	21,770
434,49	23,764
434,69	24,781
434,89	17,807
435,10	22,057
435,30	24,555
435,51	20,391
435,71	24,985
435,91	22,768
436,12	21,520
436,32	22,226
436,53	22,858
436,73	23,342
436,93	24,091
437,14	23,774
437,34	24,768
437,55	27,934
437,75	24,866
437,95	24,020
438,16	23,639
438,36	23,129
438,57	22,405
438,77	21,605
438,97	27,552
439,18	29,757
439,38	24,612
439,58	22,890
439,79	23,887
439,99	20,858
440,20	25,404
440,40	26,074
440,60	26,377
440,81	24,909
441,01	20,938
441,21	26,321
441,42	27,222
441,62	27,638
441,83	25,866
442,03	23,852
442,23	27,101
442,44	26,020
442,64	22,936
442,84	20,445
443,05	24,744
443,25	22,996
443,45	25,768
443,66	23,744
443,86	20,999
444,06	25,074
444,27	22,723
444,47	25,293
444,67	23,470
444,88	28,028
445,08	26,510
445,28	25,729
445,49	22,683
445,69	21,458
445,90	26,079
446,10	24,746
446,30	26,538
446,51	26,033
446,71	27,258
446,91	27,113
447,12	30,759
447,32	23,388
447,52	25,192
447,72	28,791
447,93	28,990
448,13	21,455
448,33	30,784
448,54	26,617
448,74	25,472
448,94	28,779
449,15	27,965
449,35	22,470
449,55	23,704
449,76	35,405
449,96	26,025
450,16	26,090
450,37	25,932
450,57	26,350
450,77	19,141
450,98	24,742
451,18	29,353
451,38	25,858
451,58	26,121
451,79	29,233
451,99	27,822
452,19	24,515
452,40	23,797
452,60	25,228
452,80	24,832
453,00	26,787
453,21	26,593
453,41	26,598
453,61	27,440
