Fichero De Datos De SpectraSuite
++++++++++++++++++++++++++++++++++++
Fecha: Wed Apr 22 11:01:11 CEST 2009
Usuario: evoflor
Presente Oscuro Del Espectro: Sí
La Referencia de Presente Del Espectro De: Sí
Muestreados de los componentes de Número de espectros: 1
Espectrómetros: USB4F02353
Tiempo de integración (usec): 500000 (USB4F02353)
Promedio de Espectros Hechos un: 5 (USB4F02353)
El Alisar Del Furgón: 0 (USB4F02353)
Párrafo de de Corregir del la del del de Eléctrica del obscuridad: Sí (USB4F02353)
Estrobo/Lámpara Permitido: No (USB4F02353)
Correct for Detector Non-linearity: No (USB4F02353)
Párrafo de de Corregir del la del del de Externa del luz: No (USB4F02353)
Procesado del espectro de Número de pixeles en: 3648
>>>>> Comienza Data<<<<< Espectral Procesado Del EL
177,79	212,537
178,00	212,537
178,22	212,537
178,44	331,484
178,66	-206,538
178,88	66,010
179,09	-239,298
179,31	191,713
179,53	619,923
179,75	337,455
179,96	787,371
180,18	-78,877
180,40	560,303
180,62	235,106
180,83	-384,979
181,05	-1783,354
181,27	-41835,000
181,49	71,446
181,70	36,288
181,92	564,137
182,14	302,214
182,36	74,885
182,58	274,650
182,79	504,174
183,01	-6,571
183,23	271,714
183,45	-258,877
183,66	-29,801
183,88	590,206
184,10	-1267,909
184,32	-12,290
184,53	268,548
184,75	-61,959
184,97	34,782
185,18	-212,284
185,40	-391,514
185,62	140,036
185,84	-30,491
186,05	160,946
186,27	-158,120
186,49	1782,115
186,71	-25,064
186,92	63,646
187,14	-144,575
187,36	98,089
187,58	77,471
187,79	112,865
188,01	278,879
188,23	-90,724
188,45	87,564
188,66	194,799
188,88	-351,545
189,10	-1246,350
189,31	154,377
189,53	9,005
189,75	277,125
189,97	237,058
190,18	-218,305
190,40	701,382
190,62	-64,572
190,83	-114,660
191,05	113,728
191,27	109,243
191,49	250,582
191,70	-335,264
191,92	-255,381
192,14	1,212
192,35	433,249
192,57	321,000
192,79	131,981
193,01	198,560
193,22	79,267
193,44	-123,609
193,66	68,131
193,87	56,820
194,09	71,017
194,31	159,213
194,53	179,266
194,74	132,798
194,96	-25,914
195,18	120,531
195,39	-345,475
195,61	-25,170
195,83	-0,946
196,04	121,328
196,26	-318,769
196,48	-46,552
196,70	172,634
196,91	0,821
197,13	-101,430
197,35	21,981
197,56	530,759
197,78	1742,799
198,00	475,070
198,21	452,112
198,43	-353,110
198,65	141,426
198,86	425,665
199,08	-143,164
199,30	296,022
199,51	-80,570
199,73	158,538
199,95	241,671
200,16	524,365
200,38	180,654
200,60	129,009
200,81	170,525
201,03	209,062
201,25	-1138,350
201,46	127,741
201,68	92,022
201,90	828,068
202,11	-355,477
202,33	170,440
202,55	106,688
202,76	-19,033
202,98	-114,512
203,20	28,197
203,41	-381,237
203,63	127,792
203,85	-45435,000
204,06	130,476
204,28	27,145
204,50	156,717
204,71	153,419
204,93	-615,720
205,15	-14,955
205,36	9,493
205,58	159,760
205,80	-74,839
206,01	100,454
206,23	81,259
206,45	123,811
206,66	118,233
206,88	40,109
207,10	15,307
207,31	287,861
207,53	155,529
207,75	-0,556
207,96	251,754
208,18	-149,718
208,39	68,618
208,61	2172,429
208,83	-213,597
209,04	51,039
209,26	-250,853
209,48	161,899
209,69	74,734
209,91	287,280
210,13	41,019
210,34	16,308
210,56	179,756
210,77	-1257,756
210,99	212,249
211,21	3466,765
211,42	-78,153
211,64	-8,615
211,86	167,160
212,07	213,923
212,29	150,951
212,50	105,022
212,72	84,750
212,94	108,349
213,15	152,266
213,37	130,658
213,58	-146,641
213,80	916,607
214,02	6696,176
214,23	391,670
214,45	299,459
214,67	-1124,817
214,88	-110,185
215,10	-247,949
215,31	63,832
215,53	5,080
215,75	64,930
215,96	1377,857
216,18	-513,592
216,39	153,317
216,61	166,015
216,83	371,585
217,04	1086,910
217,26	61,669
217,47	114,828
217,69	191,696
217,91	-98,544
218,12	-38235,000
218,34	100,614
218,55	347,308
218,77	63,134
218,99	33,803
219,20	-120,902
219,42	266,822
219,63	-43,145
219,85	5,638
220,06	-154,096
220,28	196,357
220,50	118,881
220,71	36,913
220,93	2606,321
221,14	-1219,350
221,36	-5,994
221,58	161,209
221,79	-1,126
222,01	-73,836
222,22	600,888
222,44	-156,910
222,65	28,656
222,87	-3,252
223,09	113,422
223,30	57,459
223,52	116,327
223,73	86,072
223,95	-45,021
224,16	134,505
224,38	139,656
224,60	36,730
224,81	55,302
225,03	82,748
225,24	161,398
225,46	-5,257
225,67	29,032
225,89	-6,499
226,10	445,889
226,32	817,080
226,54	2,563
226,75	-25,304
226,97	149,458
227,18	61,337
227,40	53,478
227,61	31,225
227,83	19,945
228,04	103,432
228,26	82,095
228,47	60,753
228,69	122,412
228,91	81,763
229,12	77,787
229,34	47,725
229,55	35,086
229,77	27,677
229,98	-28,907
230,20	56,636
230,41	9,818
230,63	75,562
230,84	-65,163
231,06	23,498
231,27	-0,558
231,49	37,278
231,71	2,276
231,92	32,692
232,14	-1,870
232,35	78,380
232,57	55,898
232,78	4,922
233,00	26,900
233,21	43,248
233,43	21,501
233,64	20,825
233,86	35,401
234,07	27,782
234,29	13,756
234,50	7,358
234,72	27,882
234,93	17,352
235,15	40,313
235,36	22,270
235,58	22,800
235,79	49,177
236,01	11,666
236,22	13,658
236,44	42,802
236,65	21,723
236,87	15,700
237,08	15,357
237,30	-3,632
237,51	20,430
237,73	-5,263
237,94	11,548
238,16	13,184
238,37	17,037
238,59	6,786
238,80	14,732
239,02	-0,157
239,23	18,553
239,45	-2,261
239,66	18,243
239,88	24,590
240,09	16,667
240,31	-1,123
240,52	13,170
240,74	7,188
240,95	5,700
241,17	7,150
241,38	0,143
241,60	7,827
241,81	21,410
242,03	11,816
242,24	12,520
242,46	13,717
242,67	5,140
242,89	12,749
243,10	15,639
243,32	15,446
243,53	9,157
243,75	4,665
243,96	8,506
244,18	9,570
244,39	11,482
244,60	10,819
244,82	0,989
245,03	16,597
245,25	5,875
245,46	19,405
245,68	9,242
245,89	13,444
246,11	11,316
246,32	8,316
246,54	5,060
246,75	12,353
246,97	11,374
247,18	21,507
247,39	8,307
247,61	9,148
247,82	-1,830
248,04	10,355
248,25	8,821
248,47	12,298
248,68	9,098
248,90	3,178
249,11	13,807
249,33	14,496
249,54	6,166
249,75	12,506
249,97	5,974
250,18	10,955
250,40	12,705
250,61	1,513
250,83	2,800
251,04	8,559
251,25	2,589
251,47	3,646
251,68	11,260
251,90	5,146
252,11	10,297
252,33	6,575
252,54	9,476
252,76	6,843
252,97	7,261
253,18	4,543
253,40	7,487
253,61	-0,120
253,83	10,835
254,04	9,372
254,25	10,199
254,47	4,532
254,68	5,582
254,90	5,703
255,11	7,542
255,33	5,319
255,54	5,936
255,75	6,465
255,97	9,721
256,18	4,073
256,40	9,871
256,61	7,489
256,82	1,993
257,04	9,222
257,25	-0,823
257,47	3,436
257,68	1,871
257,89	9,183
258,11	7,578
258,32	5,163
258,54	9,824
258,75	11,268
258,96	8,456
259,18	8,361
259,39	2,212
259,61	9,373
259,82	8,486
260,03	5,529
260,25	6,981
260,46	6,958
260,68	6,776
260,89	4,980
261,10	5,526
261,32	10,020
261,53	6,889
261,75	7,571
261,96	-0,146
262,17	10,155
262,39	11,923
262,60	5,471
262,81	1,017
263,03	6,113
263,24	3,882
263,46	4,571
263,67	5,795
263,88	9,706
264,10	10,637
264,31	4,375
264,52	7,362
264,74	5,441
264,95	4,912
265,17	6,341
265,38	8,290
265,59	13,209
265,81	7,972
266,02	1,851
266,23	4,276
266,45	8,343
266,66	11,161
266,87	11,142
267,09	6,742
267,30	12,248
267,52	5,398
267,73	4,291
267,94	2,806
268,16	8,936
268,37	7,747
268,58	5,844
268,80	6,331
269,01	7,517
269,22	6,675
269,44	9,545
269,65	7,452
269,86	5,722
270,08	7,605
270,29	4,901
270,50	7,961
270,72	10,409
270,93	5,727
271,14	5,095
271,36	6,658
271,57	10,200
271,78	6,167
272,00	6,223
272,21	7,506
272,42	7,788
272,64	10,687
272,85	4,343
273,06	3,875
273,28	7,371
273,49	5,759
273,70	8,539
273,92	5,817
274,13	11,159
274,34	7,184
274,56	11,838
274,77	6,247
274,98	7,905
275,20	7,148
275,41	8,304
275,62	7,316
275,84	7,526
276,05	11,820
276,26	3,579
276,47	4,225
276,69	10,137
276,90	3,047
277,11	8,956
277,33	5,601
277,54	10,320
277,75	7,403
277,97	9,348
278,18	9,166
278,39	8,415
278,61	4,835
278,82	9,802
279,03	8,067
279,24	4,612
279,46	7,762
279,67	6,709
279,88	6,410
280,10	10,819
280,31	4,582
280,52	7,443
280,73	6,048
280,95	7,657
281,16	10,022
281,37	7,263
281,59	10,197
281,80	11,756
282,01	2,428
282,22	5,810
282,44	2,515
282,65	11,000
282,86	8,243
283,08	6,343
283,29	6,713
283,50	8,466
283,71	7,656
283,93	6,809
284,14	11,325
284,35	5,373
284,56	5,334
284,78	5,336
284,99	5,929
285,20	9,133
285,42	9,556
285,63	7,502
285,84	5,830
286,05	3,939
286,27	6,967
286,48	3,524
286,69	5,773
286,90	6,725
287,12	6,493
287,33	6,098
287,54	6,984
287,75	6,833
287,97	9,001
288,18	6,890
288,39	3,864
288,60	8,488
288,82	7,259
289,03	4,871
289,24	5,570
289,45	9,349
289,67	5,357
289,88	6,092
290,09	7,667
290,30	7,381
290,52	4,862
290,73	6,366
290,94	4,410
291,15	7,527
291,37	6,014
291,58	7,174
291,79	6,018
292,00	7,341
292,21	8,997
292,43	3,796
292,64	4,137
292,85	4,860
293,06	8,053
293,28	4,666
293,49	2,731
293,70	7,770
293,91	3,993
294,12	8,587
294,34	6,047
294,55	3,330
294,76	6,594
294,97	8,566
295,19	3,797
295,40	6,796
295,61	6,194
295,82	3,698
296,03	7,181
296,25	2,973
296,46	4,920
296,67	3,590
296,88	2,796
297,09	6,597
297,31	4,635
297,52	5,011
297,73	4,479
297,94	7,495
298,15	8,462
298,37	7,341
298,58	8,375
298,79	8,350
299,00	6,365
299,21	6,015
299,43	5,871
299,64	7,934
299,85	8,682
300,06	3,974
300,27	4,558
300,49	7,184
300,70	8,193
300,91	5,159
301,12	6,400
301,33	9,267
301,54	5,473
301,76	6,968
301,97	4,830
302,18	4,266
302,39	8,343
302,60	6,953
302,82	7,085
303,03	9,046
303,24	5,855
303,45	7,560
303,66	6,647
303,87	5,167
304,09	8,192
304,30	6,087
304,51	6,590
304,72	5,904
304,93	8,950
305,14	4,897
305,36	4,769
305,57	4,550
305,78	7,265
305,99	5,699
306,20	6,378
306,41	4,625
306,62	2,947
306,84	5,609
307,05	3,610
307,26	6,309
307,47	8,924
307,68	4,458
307,89	6,361
308,11	6,627
308,32	2,674
308,53	6,052
308,74	3,483
308,95	4,056
309,16	9,032
309,37	9,219
309,59	4,179
309,80	5,331
310,01	5,728
310,22	8,927
310,43	5,407
310,64	5,407
310,85	6,119
311,06	4,488
311,28	8,785
311,49	6,233
311,70	8,764
311,91	5,013
312,12	5,413
312,33	8,042
312,54	7,576
312,75	4,405
312,97	3,722
313,18	7,056
313,39	5,416
313,60	8,959
313,81	7,089
314,02	7,839
314,23	5,582
314,44	3,144
314,65	6,514
314,87	6,432
315,08	5,070
315,29	8,906
315,50	8,517
315,71	8,695
315,92	10,453
316,13	4,733
316,34	6,941
316,55	8,077
316,77	3,695
316,98	3,914
317,19	4,313
317,40	7,574
317,61	7,915
317,82	5,140
318,03	5,348
318,24	6,175
318,45	8,654
318,66	6,598
318,87	2,870
319,09	7,087
319,30	6,661
319,51	5,910
319,72	6,575
319,93	8,341
320,14	8,778
320,35	4,191
320,56	5,102
320,77	3,203
320,98	11,562
321,19	9,122
321,40	4,877
321,62	8,100
321,83	7,101
322,04	7,251
322,25	7,020
322,46	10,718
322,67	9,342
322,88	5,587
323,09	5,704
323,30	7,570
323,51	6,493
323,72	8,684
323,93	6,108
324,14	5,288
324,35	5,530
324,56	1,908
324,77	5,248
324,99	6,478
325,20	3,302
325,41	5,280
325,62	5,722
325,83	3,637
326,04	4,364
326,25	8,626
326,46	4,429
326,67	5,684
326,88	9,511
327,09	6,527
327,30	5,611
327,51	6,480
327,72	7,654
327,93	8,313
328,14	4,129
328,35	6,513
328,56	7,316
328,77	6,068
328,98	10,276
329,19	6,320
329,40	8,246
329,61	5,810
329,82	3,497
330,04	5,759
330,25	2,352
330,46	7,565
330,67	3,557
330,88	5,257
331,09	5,441
331,30	7,944
331,51	6,895
331,72	6,966
331,93	6,240
332,14	5,232
332,35	8,939
332,56	7,546
332,77	8,690
332,98	4,610
333,19	3,692
333,40	6,412
333,61	5,301
333,82	8,567
334,03	9,060
334,24	6,296
334,45	6,421
334,66	9,226
334,87	7,091
335,08	5,418
335,29	5,287
335,50	3,387
335,71	2,241
335,92	6,733
336,13	8,392
336,34	2,107
336,55	8,815
336,76	7,336
336,97	5,846
337,18	4,600
337,39	8,111
337,60	6,166
337,81	6,050
338,02	6,421
338,23	4,101
338,44	6,184
338,65	5,201
338,86	8,912
339,07	5,869
339,28	5,565
339,49	5,661
339,70	4,574
339,91	4,735
340,11	9,173
340,32	5,712
340,53	4,300
340,74	5,815
340,95	4,767
341,16	6,752
341,37	6,778
341,58	3,086
341,79	5,287
342,00	6,094
342,21	7,120
342,42	6,326
342,63	5,299
342,84	5,024
343,05	5,002
343,26	7,057
343,47	7,524
343,68	7,487
343,89	6,236
344,10	7,683
344,31	7,373
344,52	7,479
344,73	3,894
344,94	8,114
345,14	7,761
345,35	6,666
345,56	8,108
345,77	4,251
345,98	4,183
346,19	8,929
346,40	5,285
346,61	5,698
346,82	7,589
347,03	7,108
347,24	7,445
347,45	4,718
347,66	9,417
347,87	5,999
348,08	9,326
348,28	3,322
348,49	5,979
348,70	6,454
348,91	6,681
349,12	2,895
349,33	19,339
349,54	2,315
349,75	6,999
349,96	5,284
350,17	6,332
350,38	4,253
350,59	8,473
350,80	5,079
351,00	7,272
351,21	10,765
351,42	5,213
351,63	5,591
351,84	4,314
352,05	8,440
352,26	5,561
352,47	6,233
352,68	7,676
352,89	5,921
353,09	8,777
353,30	5,040
353,51	7,834
353,72	9,100
353,93	9,161
354,14	2,480
354,35	8,458
354,56	8,447
354,77	8,540
354,98	2,586
355,18	6,714
355,39	8,203
355,60	7,318
355,81	5,617
356,02	5,941
356,23	8,126
356,44	6,941
356,65	7,580
356,85	11,184
357,06	10,289
357,27	8,890
357,48	7,031
357,69	9,063
357,90	8,207
358,11	3,961
358,32	6,011
358,52	6,883
358,73	8,729
358,94	5,251
359,15	7,746
359,36	5,555
359,57	5,476
359,78	8,384
359,98	5,989
360,19	5,226
360,40	5,126
360,61	11,339
360,82	6,931
361,03	9,415
361,24	6,344
361,44	5,732
361,65	6,675
361,86	6,678
362,07	5,210
362,28	4,659
362,49	5,308
362,70	5,731
362,90	8,615
363,11	5,117
363,32	2,881
363,53	5,997
363,74	9,225
363,95	8,925
364,15	7,174
364,36	11,587
364,57	6,357
364,78	7,682
364,99	7,281
365,20	6,889
365,40	9,087
365,61	5,219
365,82	8,353
366,03	8,341
366,24	9,847
366,45	6,803
366,65	8,956
366,86	6,290
367,07	7,872
367,28	6,225
367,49	7,883
367,69	10,020
367,90	6,248
368,11	6,832
368,32	4,547
368,53	8,772
368,73	9,425
368,94	5,085
369,15	6,539
369,36	9,656
369,57	9,037
369,78	5,885
369,98	9,478
370,19	10,269
370,40	9,301
370,61	8,685
370,82	7,614
371,02	6,759
371,23	9,600
371,44	7,686
371,65	6,166
371,85	9,904
372,06	8,797
372,27	7,835
372,48	7,595
372,69	6,021
372,89	4,154
373,10	7,336
373,31	7,395
373,52	8,892
373,73	12,496
373,93	7,101
374,14	10,288
374,35	10,516
374,56	10,146
374,76	6,049
374,97	6,119
375,18	7,715
375,39	8,771
375,60	9,903
375,80	7,447
376,01	9,689
376,22	6,948
376,43	6,717
376,63	7,101
376,84	4,298
377,05	10,650
377,26	5,644
377,46	4,362
377,67	6,943
377,88	7,949
378,09	6,764
378,29	3,821
378,50	9,564
378,71	8,144
378,92	6,140
379,12	6,224
379,33	5,388
379,54	9,169
379,75	6,728
379,95	5,017
380,16	9,782
380,37	10,096
380,58	6,103
380,78	9,421
380,99	7,315
381,20	7,103
381,41	8,633
381,61	10,207
381,82	7,750
382,03	5,083
382,24	7,674
382,44	5,274
382,65	6,171
382,86	7,971
383,06	4,358
383,27	8,484
383,48	4,647
383,69	6,694
383,89	10,747
384,10	7,943
384,31	8,931
384,51	8,382
384,72	6,455
384,93	8,533
385,14	8,915
385,34	9,095
385,55	5,548
385,76	3,389
385,96	9,983
386,17	8,531
386,38	9,492
386,59	11,706
386,79	9,462
387,00	10,529
387,21	9,162
387,41	7,960
387,62	7,266
387,83	11,963
388,03	7,598
388,24	4,014
388,45	8,925
388,66	6,203
388,86	8,439
389,07	5,736
389,28	13,670
389,48	9,199
389,69	8,774
389,90	8,046
390,10	9,564
390,31	8,632
390,52	6,223
390,72	4,910
390,93	8,468
391,14	7,641
391,34	8,440
391,55	9,064
391,76	14,438
391,96	8,632
392,17	6,537
392,38	10,003
392,58	8,199
392,79	8,580
393,00	5,090
393,20	6,995
393,41	8,832
393,62	9,122
393,82	7,882
394,03	9,963
394,24	11,360
394,44	10,456
394,65	7,643
394,86	9,104
395,06	10,007
395,27	10,353
395,48	5,952
395,68	11,391
395,89	10,826
396,10	10,546
396,30	7,837
396,51	8,221
396,72	7,676
396,92	5,954
397,13	8,620
397,34	6,712
397,54	12,058
397,75	10,315
397,95	7,871
398,16	9,095
398,37	7,693
398,57	8,071
398,78	11,825
398,99	10,010
399,19	10,505
399,40	8,381
399,60	9,320
399,81	10,514
400,02	13,763
400,22	9,645
400,43	12,168
400,64	12,167
400,84	9,753
401,05	13,569
401,25	12,367
401,46	8,596
401,67	11,844
401,87	10,040
402,08	9,125
402,29	6,897
402,49	13,893
402,70	13,056
402,90	9,678
403,11	12,586
403,32	14,713
403,52	11,572
403,73	13,563
403,93	14,035
404,14	16,063
404,35	12,430
404,55	12,444
404,76	11,429
404,96	14,278
405,17	14,400
405,38	11,335
405,58	11,644
405,79	12,741
405,99	15,466
406,20	14,796
406,40	9,203
406,61	16,442
406,82	11,056
407,02	14,655
407,23	11,877
407,43	12,355
407,64	11,270
407,85	15,499
408,05	8,904
408,26	22,155
408,46	16,607
408,67	9,730
408,87	13,311
409,08	11,007
409,29	19,335
409,49	14,288
409,70	14,230
409,90	15,517
410,11	11,002
410,31	17,108
410,52	15,190
410,72	11,810
410,93	16,638
411,14	13,211
411,34	12,962
411,55	16,077
411,75	17,875
411,96	14,329
412,16	17,474
412,37	16,006
412,57	18,251
412,78	15,611
412,99	14,451
413,19	18,400
413,40	16,169
413,60	10,910
413,81	16,870
414,01	16,567
414,22	15,852
414,42	15,443
414,63	17,233
414,83	17,855
415,04	19,890
415,24	18,170
415,45	17,610
415,65	16,233
415,86	17,616
416,07	17,722
416,27	16,371
416,48	18,937
416,68	18,343
416,89	14,864
417,09	18,521
417,30	19,731
417,50	21,544
417,71	19,872
417,91	18,920
418,12	12,992
418,32	18,997
418,53	19,194
418,73	16,959
418,94	17,179
419,14	18,797
419,35	13,434
419,55	20,461
419,76	15,792
419,96	16,733
420,17	15,545
420,37	14,906
420,58	22,448
420,78	17,952
420,99	18,840
421,19	19,185
421,40	17,873
421,60	21,853
421,81	17,472
422,01	16,497
422,22	19,265
422,42	20,479
422,63	19,232
422,83	18,707
423,04	19,052
423,24	19,750
423,45	15,344
423,65	19,748
423,86	25,063
424,06	20,668
424,27	17,245
424,47	17,879
424,67	18,362
424,88	21,113
425,08	16,149
425,29	23,483
425,49	14,576
425,70	13,103
425,90	17,794
426,11	17,404
426,31	22,829
426,52	18,408
426,72	18,977
426,93	17,873
427,13	19,457
427,33	19,606
427,54	23,208
427,74	20,856
427,95	22,551
428,15	14,986
428,36	22,236
428,56	18,828
428,77	23,542
428,97	21,815
429,18	20,774
429,38	18,549
429,58	25,249
429,79	20,693
429,99	23,246
430,20	14,244
430,40	22,163
430,61	16,951
430,81	16,678
431,01	24,768
431,22	22,706
431,42	25,815
431,63	19,874
431,83	16,545
432,04	21,290
432,24	19,294
432,44	17,126
432,65	21,350
432,85	22,190
433,06	22,536
433,26	18,827
433,47	17,742
433,67	20,911
433,87	20,853
434,08	19,722
434,28	20,466
434,49	19,342
434,69	22,333
434,89	20,348
435,10	22,445
435,30	20,263
435,51	16,688
435,71	19,830
435,91	18,742
436,12	17,918
436,32	21,640
436,53	18,779
436,73	22,587
436,93	22,778
437,14	20,191
437,34	21,239
437,55	20,127
437,75	23,059
437,95	21,102
438,16	22,098
438,36	19,654
438,57	20,572
438,77	22,294
438,97	23,802
439,18	24,822
439,38	19,855
439,58	20,446
439,79	20,077
439,99	21,239
440,20	22,574
440,40	23,409
440,60	23,207
440,81	22,547
441,01	22,409
441,21	27,061
441,42	21,073
441,62	24,667
441,83	19,406
442,03	21,046
442,23	20,278
442,44	20,393
442,64	20,613
442,84	18,171
443,05	22,929
443,25	19,901
443,45	21,621
443,66	22,232
443,86	20,446
444,06	17,569
444,27	21,685
444,47	18,489
444,67	20,246
444,88	22,559
445,08	22,345
445,28	22,634
445,49	21,477
445,69	19,703
445,90	21,792
446,10	23,135
446,30	24,014
446,51	20,189
446,71	23,265
446,91	26,994
447,12	24,779
447,32	22,477
447,52	22,894
447,72	21,108
447,93	20,500
448,13	19,559
448,33	29,277
448,54	24,904
448,74	16,727
448,94	24,365
449,15	23,943
449,35	19,467
449,55	21,752
449,76	29,575
449,96	23,565
450,16	25,010
450,37	17,208
450,57	25,652
450,77	18,296
450,98	21,618
451,18	27,275
451,38	22,953
451,58	23,363
451,79	24,458
451,99	25,616
452,19	22,064
452,40	22,662
452,60	23,246
452,80	22,454
453,00	27,763
453,21	24,355
453,41	24,908
