Fichero De Datos De SpectraSuite
++++++++++++++++++++++++++++++++++++
Fecha: Wed Apr 22 11:05:03 CEST 2009
Usuario: evoflor
Presente Oscuro Del Espectro: Sí
La Referencia de Presente Del Espectro De: Sí
Muestreados de los componentes de Número de espectros: 1
Espectrómetros: USB4F02353
Tiempo de integración (usec): 500000 (USB4F02353)
Promedio de Espectros Hechos un: 5 (USB4F02353)
El Alisar Del Furgón: 0 (USB4F02353)
Párrafo de de Corregir del la del del de Eléctrica del obscuridad: Sí (USB4F02353)
Estrobo/Lámpara Permitido: No (USB4F02353)
Correct for Detector Non-linearity: No (USB4F02353)
Párrafo de de Corregir del la del del de Externa del luz: No (USB4F02353)
Procesado del espectro de Número de pixeles en: 3648
>>>>> Comienza Data<<<<< Espectral Procesado Del EL
177,79	201,719
178,00	201,719
178,22	201,719
178,44	1470,000
178,66	-58,806
178,88	127,915
179,09	-361,404
179,31	42,835
179,53	143,127
179,75	-17,982
179,96	445,086
180,18	-56,400
180,40	436,720
180,62	182,308
180,83	-95,331
181,05	-1332,073
181,27	-41730,000
181,49	-16,370
181,70	233,192
181,92	294,061
182,14	152,801
182,36	47,553
182,58	-264,300
182,79	632,277
183,01	-43,657
183,23	227,493
183,45	-106,246
183,66	34,381
183,88	335,471
184,10	-2967,818
184,32	355,025
184,53	148,743
184,75	-77,871
184,97	79,636
185,18	-53,064
185,40	-75,144
185,62	59,112
185,84	-70,022
186,05	162,210
186,27	-165,758
186,49	878,077
186,71	96,391
186,92	66,784
187,14	-170,360
187,36	113,089
187,58	52,332
187,79	65,152
188,01	248,114
188,23	-110,881
188,45	66,029
188,66	359,062
188,88	-2018,727
189,10	-462,300
189,31	-94,249
189,53	-28,960
189,75	258,477
189,97	18,577
190,18	109,571
190,40	256,059
190,62	203,199
190,83	-209,008
191,05	220,874
191,27	209,229
191,49	223,589
191,70	-31,875
191,92	-10,424
192,14	-3,490
192,35	354,191
192,57	1192,286
192,79	-70,600
193,01	155,043
193,22	76,506
193,44	-26,672
193,66	91,097
193,87	122,120
194,09	31,959
194,31	78,142
194,53	1015,594
194,74	15,048
194,96	37,251
195,18	102,260
195,39	-361,821
195,61	-74,615
195,83	-118,109
196,04	111,671
196,26	-96,633
196,48	-18,367
196,70	190,318
196,91	70,245
197,13	-131,316
197,35	-13,103
197,56	441,269
197,78	1211,418
198,00	386,224
198,21	635,097
198,43	-755,407
198,65	140,455
198,86	108,022
199,08	66,000
199,30	221,113
199,51	-256,124
199,73	203,324
199,95	312,698
200,16	589,731
200,38	349,669
200,60	126,291
200,81	108,630
201,03	-11,332
201,25	-237,300
201,46	103,932
201,68	21,517
201,90	3300,682
202,11	-159,275
202,33	189,641
202,55	510,375
202,76	50,080
202,98	63,868
203,20	227,740
203,41	-361,737
203,63	33,402
203,85	-33630,000
204,06	-130,789
204,28	51,253
204,50	62,663
204,71	33,975
204,93	-18,960
205,15	76,898
205,36	20,019
205,58	213,109
205,80	-76,261
206,01	57,581
206,23	113,995
206,45	107,315
206,66	117,405
206,88	-77,697
207,10	235,977
207,31	322,291
207,53	152,657
207,75	-13,600
207,96	747,985
208,18	-135,717
208,39	121,135
208,61	2452,286
208,83	-206,085
209,04	197,281
209,26	-51,290
209,48	79,384
209,69	173,274
209,91	575,777
210,13	84,974
210,34	2,978
210,56	106,527
210,77	-916,772
210,99	52,165
211,21	3778,235
211,42	-80,628
211,64	19,412
211,86	217,070
212,07	217,673
212,29	152,509
212,50	108,436
212,72	63,577
212,94	64,912
213,15	37,272
213,37	66,222
213,58	21,220
213,80	-943,929
214,02	4784,118
214,23	294,580
214,45	328,623
214,67	-1101,585
214,88	-324,262
215,10	-287,377
215,31	-115,218
215,53	213,477
215,75	136,748
215,96	991,491
216,18	131,408
216,39	188,220
216,61	32,162
216,83	-78,884
217,04	994,719
217,26	94,887
217,47	91,704
217,69	247,642
217,91	17,706
218,12	9570,000
218,34	68,498
218,55	187,082
218,77	31,216
218,99	88,707
219,20	-95,495
219,42	339,375
219,63	-16,055
219,85	-24,175
220,06	84,346
220,28	55,448
220,50	23,173
220,71	57,538
220,93	1976,038
221,14	-777,300
221,36	135,315
221,58	-30,055
221,79	-44,964
222,01	344,224
222,22	700,855
222,44	-77,191
222,65	93,661
222,87	-551,538
223,09	110,242
223,30	71,442
223,52	103,054
223,73	193,392
223,95	-3,338
224,16	-14,165
224,38	98,886
224,60	116,431
224,81	-22,204
225,03	-34,328
225,24	54,510
225,46	11,013
225,67	-6,742
225,89	14,568
226,10	413,042
226,32	405,840
226,54	24,554
226,75	-33,681
226,97	52,500
227,18	77,708
227,40	20,268
227,61	49,404
227,83	42,436
228,04	93,635
228,26	48,888
228,47	49,815
228,69	188,670
228,91	127,239
229,12	45,430
229,34	44,029
229,55	26,510
229,77	11,213
229,98	23,492
230,20	33,565
230,41	-14,672
230,63	38,637
230,84	-38,514
231,06	19,835
231,27	15,215
231,49	49,209
231,71	51,026
231,92	15,603
232,14	24,974
232,35	29,643
232,57	36,819
232,78	12,651
233,00	45,277
233,21	49,978
233,43	1,319
233,64	-8,140
233,86	36,423
234,07	27,750
234,29	12,419
234,50	-4,355
234,72	21,461
234,93	-11,837
235,15	33,769
235,36	22,747
235,58	23,756
235,79	48,602
236,01	9,013
236,22	13,959
236,44	29,051
236,65	19,736
236,87	18,064
237,08	4,482
237,30	2,189
237,51	18,186
237,73	4,559
237,94	13,135
238,16	20,950
238,37	8,796
238,59	17,794
238,80	5,915
239,02	-0,377
239,23	13,793
239,45	9,204
239,66	17,923
239,88	15,595
240,09	19,867
240,31	-8,500
240,52	5,304
240,74	8,906
240,95	16,881
241,17	1,569
241,38	13,634
241,60	14,078
241,81	16,584
242,03	4,854
242,24	11,464
242,46	23,077
242,67	1,991
242,89	10,519
243,10	11,929
243,32	18,133
243,53	5,393
243,75	5,171
243,96	6,417
244,18	8,979
244,39	10,446
244,60	9,340
244,82	0,162
245,03	14,014
245,25	4,425
245,46	15,016
245,68	4,937
245,89	15,835
246,11	12,651
246,32	14,605
246,54	6,898
246,75	8,382
246,97	8,911
247,18	17,930
247,39	7,920
247,61	8,356
247,82	4,169
248,04	13,283
248,25	5,602
248,47	11,427
248,68	11,802
248,90	-0,335
249,11	8,309
249,33	14,955
249,54	6,438
249,75	9,045
249,97	1,825
250,18	8,679
250,40	14,340
250,61	-0,093
250,83	10,261
251,04	8,667
251,25	7,054
251,47	4,294
251,68	12,678
251,90	9,043
252,11	12,524
252,33	6,569
252,54	8,534
252,76	5,317
252,97	7,970
253,18	2,593
253,40	5,384
253,61	1,823
253,83	8,045
254,04	8,870
254,25	6,711
254,47	7,397
254,68	7,033
254,90	10,980
255,11	12,409
255,33	6,547
255,54	5,086
255,75	5,341
255,97	8,387
256,18	4,772
256,40	3,883
256,61	8,686
256,82	2,446
257,04	10,635
257,25	2,131
257,47	7,711
257,68	2,370
257,89	6,573
258,11	8,508
258,32	5,450
258,54	8,311
258,75	12,695
258,96	9,892
259,18	6,747
259,39	2,851
259,61	7,448
259,82	5,645
260,03	9,012
260,25	6,369
260,46	2,751
260,68	6,062
260,89	6,215
261,10	5,076
261,32	4,289
261,53	4,737
261,75	6,447
261,96	1,512
262,17	9,801
262,39	10,724
262,60	2,537
262,81	2,715
263,03	10,290
263,24	6,441
263,46	2,434
263,67	5,867
263,88	5,410
264,10	10,974
264,31	3,582
264,52	4,064
264,74	8,720
264,95	1,569
265,17	6,850
265,38	3,752
265,59	7,031
265,81	8,529
266,02	2,524
266,23	5,615
266,45	8,685
266,66	11,764
266,87	6,850
267,09	5,265
267,30	8,963
267,52	6,628
267,73	6,139
267,94	5,293
268,16	8,260
268,37	7,010
268,58	7,398
268,80	6,367
269,01	4,528
269,22	10,950
269,44	8,341
269,65	9,210
269,86	2,600
270,08	10,477
270,29	6,638
270,50	10,206
270,72	8,394
270,93	5,496
271,14	1,876
271,36	6,030
271,57	7,480
271,78	10,689
272,00	7,460
272,21	6,339
272,42	6,622
272,64	5,800
272,85	4,779
273,06	5,383
273,28	4,696
273,49	7,297
273,70	5,885
273,92	6,762
274,13	7,882
274,34	6,010
274,56	8,063
274,77	1,722
274,98	6,203
275,20	6,609
275,41	8,266
275,62	4,253
275,84	5,241
276,05	10,096
276,26	4,809
276,47	2,665
276,69	6,459
276,90	5,644
277,11	4,813
277,33	5,251
277,54	5,408
277,75	6,025
277,97	6,222
278,18	3,985
278,39	7,919
278,61	4,412
278,82	4,581
279,03	7,723
279,24	4,934
279,46	5,963
279,67	9,232
279,88	7,045
280,10	8,536
280,31	3,542
280,52	8,577
280,73	3,077
280,95	6,715
281,16	9,955
281,37	5,089
281,59	7,252
281,80	10,818
282,01	7,581
282,22	4,404
282,44	4,252
282,65	7,103
282,86	10,150
283,08	5,457
283,29	6,895
283,50	6,483
283,71	8,049
283,93	4,413
284,14	9,002
284,35	5,086
284,56	5,610
284,78	5,118
284,99	7,223
285,20	6,507
285,42	3,749
285,63	6,181
285,84	6,873
286,05	6,765
286,27	4,131
286,48	5,900
286,69	1,882
286,90	6,286
287,12	4,254
287,33	3,915
287,54	3,597
287,75	5,235
287,97	9,294
288,18	5,105
288,39	3,166
288,60	5,250
288,82	5,903
289,03	5,089
289,24	4,300
289,45	10,362
289,67	6,341
289,88	5,265
290,09	6,813
290,30	5,427
290,52	4,831
290,73	3,321
290,94	5,341
291,15	5,720
291,37	6,899
291,58	5,789
291,79	4,654
292,00	6,778
292,21	8,077
292,43	5,252
292,64	4,491
292,85	5,955
293,06	6,754
293,28	2,376
293,49	3,757
293,70	9,211
293,91	5,877
294,12	5,020
294,34	4,895
294,55	4,336
294,76	6,959
294,97	8,587
295,19	4,519
295,40	6,496
295,61	7,107
295,82	2,303
296,03	5,009
296,25	6,671
296,46	6,630
296,67	5,502
296,88	3,350
297,09	6,127
297,31	4,251
297,52	6,498
297,73	3,691
297,94	8,130
298,15	7,017
298,37	4,953
298,58	6,369
298,79	8,026
299,00	4,824
299,21	1,220
299,43	2,586
299,64	7,543
299,85	5,569
300,06	4,230
300,27	5,091
300,49	11,085
300,70	4,825
300,91	4,372
301,12	2,843
301,33	7,555
301,54	5,370
301,76	5,696
301,97	3,647
302,18	5,283
302,39	8,808
302,60	6,711
302,82	7,671
303,03	8,995
303,24	6,222
303,45	7,100
303,66	4,848
303,87	5,188
304,09	9,720
304,30	6,036
304,51	4,091
304,72	4,238
304,93	5,318
305,14	6,253
305,36	3,864
305,57	1,950
305,78	6,896
305,99	3,628
306,20	5,863
306,41	4,598
306,62	5,208
306,84	3,498
307,05	2,652
307,26	5,430
307,47	11,180
307,68	5,281
307,89	3,648
308,11	6,904
308,32	5,136
308,53	5,050
308,74	4,219
308,95	5,466
309,16	4,683
309,37	8,104
309,59	1,026
309,80	4,240
310,01	6,232
310,22	6,689
310,43	3,708
310,64	6,096
310,85	6,895
311,06	3,545
311,28	5,639
311,49	7,029
311,70	7,601
311,91	4,096
312,12	6,405
312,33	5,817
312,54	7,024
312,75	5,078
312,97	2,854
313,18	5,988
313,39	5,243
313,60	4,734
313,81	4,978
314,02	6,223
314,23	6,523
314,44	3,310
314,65	5,883
314,87	3,470
315,08	3,658
315,29	8,495
315,50	8,168
315,71	7,637
315,92	8,624
316,13	6,876
316,34	5,514
316,55	5,557
316,77	3,768
316,98	5,377
317,19	3,296
317,40	6,397
317,61	8,063
317,82	3,508
318,03	2,933
318,24	6,347
318,45	7,344
318,66	4,894
318,87	2,306
319,09	7,374
319,30	7,402
319,51	6,718
319,72	8,355
319,93	8,039
320,14	7,331
320,35	7,110
320,56	6,315
320,77	3,389
320,98	8,099
321,19	4,461
321,40	5,986
321,62	8,278
321,83	5,802
322,04	6,822
322,25	7,393
322,46	9,416
322,67	9,556
322,88	6,235
323,09	6,370
323,30	6,097
323,51	5,621
323,72	7,345
323,93	5,136
324,14	4,018
324,35	2,794
324,56	2,436
324,77	4,609
324,99	5,544
325,20	2,413
325,41	5,016
325,62	6,953
325,83	2,839
326,04	5,027
326,25	8,839
326,46	2,476
326,67	6,760
326,88	5,624
327,09	5,446
327,30	3,574
327,51	6,038
327,72	7,771
327,93	5,145
328,14	1,090
328,35	4,746
328,56	6,713
328,77	4,261
328,98	5,205
329,19	4,935
329,40	6,139
329,61	6,412
329,82	1,171
330,04	6,072
330,25	3,847
330,46	6,855
330,67	1,691
330,88	2,984
331,09	4,008
331,30	5,474
331,51	4,139
331,72	3,975
331,93	6,131
332,14	6,258
332,35	9,648
332,56	4,269
332,77	10,107
332,98	2,820
333,19	4,530
333,40	6,858
333,61	4,693
333,82	8,281
334,03	4,333
334,24	6,580
334,45	5,291
334,66	6,816
334,87	5,630
335,08	3,799
335,29	0,513
335,50	5,365
335,71	1,976
335,92	7,020
336,13	4,095
336,34	2,721
336,55	6,001
336,76	5,927
336,97	4,385
337,18	4,228
337,39	5,914
337,60	5,687
337,81	5,799
338,02	6,144
338,23	4,504
338,44	5,236
338,65	4,987
338,86	5,022
339,07	3,869
339,28	7,553
339,49	4,260
339,70	2,752
339,91	4,863
340,11	5,866
340,32	5,600
340,53	4,378
340,74	2,764
340,95	4,874
341,16	6,210
341,37	7,019
341,58	3,332
341,79	2,784
342,00	5,358
342,21	5,360
342,42	5,561
342,63	7,258
342,84	3,237
343,05	6,816
343,26	8,655
343,47	3,850
343,68	4,128
343,89	4,862
344,10	6,607
344,31	7,808
344,52	4,606
344,73	5,498
344,94	5,974
345,14	5,580
345,35	8,846
345,56	3,767
345,77	5,819
345,98	7,253
346,19	5,622
346,40	5,912
346,61	6,168
346,82	6,093
347,03	4,656
347,24	7,862
347,45	4,323
347,66	9,631
347,87	1,434
348,08	5,558
348,28	0,353
348,49	7,135
348,70	6,948
348,91	8,222
349,12	3,633
349,33	15,523
349,54	5,509
349,75	4,906
349,96	6,701
350,17	5,700
350,38	5,623
350,59	5,254
350,80	6,712
351,00	9,429
351,21	10,565
351,42	3,334
351,63	4,912
351,84	7,096
352,05	8,951
352,26	6,343
352,47	3,952
352,68	7,160
352,89	5,772
353,09	5,921
353,30	1,004
353,51	4,355
353,72	11,249
353,93	9,771
354,14	3,894
354,35	5,780
354,56	7,481
354,77	4,504
354,98	2,045
355,18	7,710
355,39	8,285
355,60	4,514
355,81	6,318
356,02	3,742
356,23	6,587
356,44	2,980
356,65	7,218
356,85	12,146
357,06	7,367
357,27	7,117
357,48	5,858
357,69	7,880
357,90	7,536
358,11	4,306
358,32	3,263
358,52	8,582
358,73	5,831
358,94	3,721
359,15	6,870
359,36	6,733
359,57	6,383
359,78	5,793
359,98	5,385
360,19	4,951
360,40	6,856
360,61	7,800
360,82	6,346
361,03	9,529
361,24	8,263
361,44	3,671
361,65	5,219
361,86	4,402
362,07	7,359
362,28	5,400
362,49	3,540
362,70	3,536
362,90	10,400
363,11	3,066
363,32	4,696
363,53	4,967
363,74	7,964
363,95	7,585
364,15	6,464
364,36	8,895
364,57	6,887
364,78	3,518
364,99	6,662
365,20	7,744
365,40	6,949
365,61	5,245
365,82	10,278
366,03	1,724
366,24	8,600
366,45	5,842
366,65	7,187
366,86	4,519
367,07	5,731
367,28	7,599
367,49	4,910
367,69	11,753
367,90	6,336
368,11	5,482
368,32	5,518
368,53	7,526
368,73	9,246
368,94	7,782
369,15	5,743
369,36	6,748
369,57	6,248
369,78	3,290
369,98	6,883
370,19	11,174
370,40	4,792
370,61	5,854
370,82	6,030
371,02	4,486
371,23	10,205
371,44	5,946
371,65	10,346
371,85	6,844
372,06	7,730
372,27	2,905
372,48	5,613
372,69	5,454
372,89	6,105
373,10	4,430
373,31	8,038
373,52	4,842
373,73	7,754
373,93	5,845
374,14	5,806
374,35	7,460
374,56	10,386
374,76	5,985
374,97	6,052
375,18	5,857
375,39	8,489
375,60	7,396
375,80	4,925
376,01	4,355
376,22	4,314
376,43	5,522
376,63	9,622
376,84	6,545
377,05	4,875
377,26	4,393
377,46	5,492
377,67	4,566
377,88	7,328
378,09	5,533
378,29	3,394
378,50	6,980
378,71	7,351
378,92	5,654
379,12	6,189
379,33	4,595
379,54	6,083
379,75	6,003
379,95	2,652
380,16	7,513
380,37	10,672
380,58	7,380
380,78	4,714
380,99	5,756
381,20	4,071
381,41	4,908
381,61	8,443
381,82	6,751
382,03	7,171
382,24	7,157
382,44	8,691
382,65	4,759
382,86	7,072
383,06	4,918
383,27	5,263
383,48	5,485
383,69	9,274
383,89	8,253
384,10	7,337
384,31	6,723
384,51	8,510
384,72	6,387
384,93	9,812
385,14	7,417
385,34	8,353
385,55	5,839
385,76	4,253
385,96	8,432
386,17	8,659
386,38	9,970
386,59	9,130
386,79	4,473
387,00	8,631
387,21	11,895
387,41	7,289
387,62	6,201
387,83	10,818
388,03	7,463
388,24	4,210
388,45	7,519
388,66	9,327
388,86	9,644
389,07	3,634
389,28	13,530
389,48	4,318
389,69	6,385
389,90	7,321
390,10	13,507
390,31	12,528
390,52	4,128
390,72	4,776
390,93	7,503
391,14	6,793
391,34	8,853
391,55	8,874
391,76	7,127
391,96	8,015
392,17	7,269
392,38	11,318
392,58	11,095
392,79	8,673
393,00	5,486
393,20	11,709
393,41	9,124
393,62	9,413
393,82	9,671
394,03	10,460
394,24	9,264
394,44	9,899
394,65	9,874
394,86	12,194
395,06	13,254
395,27	7,656
395,48	9,085
395,68	9,620
395,89	12,672
396,10	10,607
396,30	10,557
396,51	7,948
396,72	14,793
396,92	7,705
397,13	10,045
397,34	7,674
397,54	12,895
397,75	8,348
397,95	11,420
398,16	12,484
398,37	12,767
398,57	11,833
398,78	11,472
398,99	13,393
399,19	12,271
399,40	10,426
399,60	12,083
399,81	10,613
400,02	12,243
400,22	15,206
400,43	14,953
400,64	12,563
400,84	12,833
401,05	16,220
401,25	15,374
401,46	15,239
401,67	14,365
401,87	11,164
402,08	11,275
402,29	9,992
402,49	16,995
402,70	18,870
402,90	12,959
403,11	14,309
403,32	17,648
403,52	15,119
403,73	18,536
403,93	17,769
404,14	19,197
404,35	19,524
404,55	13,305
404,76	15,400
404,96	17,511
405,17	15,052
405,38	19,045
405,58	13,770
405,79	18,883
405,99	22,433
406,20	16,366
406,40	18,383
406,61	19,343
406,82	15,192
407,02	20,243
407,23	19,242
407,43	17,659
407,64	18,646
407,85	16,008
408,05	12,623
408,26	25,083
408,46	21,904
408,67	18,563
408,87	15,873
409,08	20,655
409,29	24,123
409,49	25,127
409,70	20,792
409,90	22,549
410,11	21,663
410,31	26,022
410,52	20,767
410,72	22,075
410,93	25,910
411,14	20,094
411,34	20,416
411,55	25,260
411,75	26,398
411,96	21,284
412,16	23,010
412,37	22,419
412,57	24,078
412,78	23,315
412,99	20,682
413,19	26,342
413,40	24,690
413,60	25,174
413,81	20,251
414,01	21,880
414,22	24,494
414,42	24,041
414,63	21,721
414,83	29,895
415,04	30,426
415,24	28,370
415,45	27,679
415,65	22,978
415,86	26,469
416,07	27,983
416,27	24,887
416,48	31,487
416,68	29,112
416,89	25,528
417,09	25,042
417,30	33,715
417,50	27,701
417,71	29,285
417,91	31,297
418,12	25,331
418,32	30,583
418,53	28,269
418,73	26,411
418,94	30,423
419,14	27,593
419,35	24,307
419,55	28,213
419,76	31,102
419,96	28,139
420,17	30,000
420,37	27,699
420,58	34,567
420,78	27,843
420,99	30,669
421,19	32,688
421,40	29,386
421,60	31,597
421,81	30,527
422,01	29,742
422,22	28,545
422,42	29,589
422,63	31,674
422,83	27,943
423,04	30,393
423,24	34,256
423,45	29,978
423,65	35,061
423,86	36,687
424,06	36,213
424,27	32,192
424,47	33,423
424,67	27,887
424,88	33,251
425,08	32,842
425,29	40,067
425,49	30,175
425,70	29,348
425,90	33,384
426,11	28,272
426,31	32,735
426,52	33,539
426,72	29,874
426,93	32,487
427,13	35,158
427,33	31,474
427,54	34,292
427,74	36,797
427,95	32,655
428,15	33,324
428,36	31,408
428,56	32,581
428,77	33,479
428,97	30,057
429,18	35,999
429,38	31,251
429,58	37,278
429,79	38,192
429,99	31,849
430,20	27,293
430,40	35,187
430,61	33,808
430,81	31,500
431,01	36,693
431,22	36,109
431,42	32,586
431,63	31,553
431,83	36,131
432,04	33,194
432,24	37,479
432,44	30,378
432,65	32,272
432,85	31,281
433,06	32,061
433,26	31,949
433,47	29,691
433,67	31,500
433,87	32,051
434,08	30,913
434,28	34,189
434,49	35,052
434,69	33,683
434,89	26,781
435,10	31,108
435,30	34,796
435,51	30,369
435,71	34,301
435,91	32,683
436,12	31,550
436,32	31,710
436,53	32,508
436,73	33,478
436,93	36,300
437,14	32,445
437,34	36,209
437,55	31,888
437,75	37,685
437,95	39,455
438,16	35,093
438,36	33,882
438,57	31,902
438,77	32,381
438,97	35,055
439,18	39,201
439,38	37,634
439,58	31,173
439,79	35,492
439,99	33,762
440,20	40,403
440,40	38,465
440,60	35,881
440,81	35,847
441,01	35,045
441,21	35,155
441,42	36,887
441,62	35,544
441,83	38,393
442,03	38,966
442,23	34,658
442,44	34,780
442,64	34,633
442,84	33,638
443,05	32,486
443,25	33,267
443,45	37,090
443,66	35,501
443,86	32,394
444,06	35,115
444,27	33,099
444,47	29,455
444,67	36,499
444,88	37,854
445,08	34,299
445,28	35,393
445,49	30,632
445,69	34,604
445,90	36,953
446,10	39,731
446,30	37,178
446,51	35,767
446,71	37,596
446,91	36,491
447,12	40,362
447,32	34,081
447,52	40,683
447,72	39,007
447,93	33,360
448,13	30,456
448,33	40,856
448,54	36,703
448,74	30,279
448,94	35,747
449,15	38,902
449,35	32,620
449,55	39,821
449,76	40,221
449,96	32,336
450,16	34,177
450,37	33,640
450,57	34,446
450,77	30,131
450,98	37,602
451,18	39,226
451,38	33,501
451,58	33,637
451,79	38,591
451,99	36,933
452,19	36,743
452,40	35,745
452,60	34,283
452,80	32,183
453,00	39,282
453,21	40,411
453,41	36,447
453,61	33,885
453,82	36,369
