Fichero De Datos De SpectraSuite
++++++++++++++++++++++++++++++++++++
Fecha: Wed Apr 22 11:03:13 CEST 2009
Usuario: evoflor
Presente Oscuro Del Espectro: Sí
La Referencia de Presente Del Espectro De: Sí
Muestreados de los componentes de Número de espectros: 1
Espectrómetros: USB4F02353
Tiempo de integración (usec): 500000 (USB4F02353)
Promedio de Espectros Hechos un: 5 (USB4F02353)
El Alisar Del Furgón: 0 (USB4F02353)
Párrafo de de Corregir del la del del de Eléctrica del obscuridad: Sí (USB4F02353)
Estrobo/Lámpara Permitido: No (USB4F02353)
Correct for Detector Non-linearity: No (USB4F02353)
Párrafo de de Corregir del la del del de Externa del luz: No (USB4F02353)
Procesado del espectro de Número de pixeles en: 3648
>>>>> Comienza Data<<<<< Espectral Procesado Del EL
177,79	200,859
178,00	200,859
178,22	200,859
178,44	1720,165
178,66	-47,573
178,88	-50,049
179,09	-279,851
179,31	272,461
179,53	479,458
179,75	263,148
179,96	660,043
180,18	-38,969
180,40	240,971
180,62	372,586
180,83	15,145
181,05	-1284,939
181,27	-93665,000
181,49	83,989
181,70	280,635
181,92	297,284
182,14	309,232
182,36	189,168
182,58	-369,650
182,79	735,558
183,01	75,848
183,23	160,334
183,45	-207,892
183,66	-75,951
183,88	296,853
184,10	-1784,818
184,32	144,963
184,53	217,290
184,75	-30,707
184,97	35,910
185,18	-96,551
185,40	73,245
185,62	89,148
185,84	165,207
186,05	126,017
186,27	-147,676
186,49	2494,808
186,71	8,688
186,92	66,463
187,14	-76,607
187,36	123,182
187,58	79,963
187,79	-95,843
188,01	228,230
188,23	-289,105
188,45	114,204
188,66	249,397
188,88	-492,091
189,10	-756,650
189,31	-215,128
189,53	-44,224
189,75	176,057
189,97	90,250
190,18	-127,189
190,40	175,088
190,62	-142,985
190,83	-211,994
191,05	130,310
191,27	416,757
191,49	269,715
191,70	-156,082
191,92	106,229
192,14	-23,237
192,35	573,117
192,57	3319,000
192,79	19,411
193,01	220,352
193,22	93,076
193,44	-184,411
193,66	105,388
193,87	148,533
194,09	74,358
194,31	185,402
194,53	403,252
194,74	156,879
194,96	44,968
195,18	173,549
195,39	-242,388
195,61	-85,106
195,83	-213,402
196,04	146,248
196,26	-22,940
196,48	-9,059
196,70	282,833
196,91	37,481
197,13	184,722
197,35	145,809
197,56	451,594
197,78	806,455
198,00	837,517
198,21	201,286
198,43	-827,122
198,65	109,734
198,86	408,147
199,08	121,197
199,30	73,006
199,51	-343,208
199,73	204,230
199,95	307,587
200,16	387,942
200,38	303,256
200,60	63,003
200,81	156,242
201,03	41,753
201,25	-1584,650
201,46	88,746
201,68	65,377
201,90	1924,205
202,11	-584,218
202,33	61,517
202,55	473,312
202,76	33,907
202,98	40,993
203,20	138,149
203,41	-350,868
203,63	73,936
203,85	-101765,000
204,06	-58,318
204,28	-2,325
204,50	109,820
204,71	197,288
204,93	-921,080
205,15	328,208
205,36	-179,092
205,58	100,317
205,80	-175,608
206,01	29,087
206,23	112,958
206,45	237,359
206,66	140,910
206,88	-19,773
207,10	298,784
207,31	269,490
207,53	154,471
207,75	0,078
207,96	954,216
208,18	-113,763
208,39	74,386
208,61	3781,857
208,83	-267,316
209,04	50,246
209,26	-211,820
209,48	179,056
209,69	178,653
209,91	635,693
210,13	31,405
210,34	-58,680
210,56	107,070
210,77	-1538,307
210,99	123,401
211,21	4556,765
211,42	-78,927
211,64	-5,991
211,86	107,635
212,07	101,539
212,29	220,097
212,50	99,213
212,72	-75,904
212,94	126,151
213,15	161,317
213,37	65,194
213,58	-99,922
213,80	-1705,893
214,02	6356,765
214,23	143,002
214,45	339,557
214,67	-1976,402
214,88	14,883
215,10	-288,495
215,31	-58,810
215,53	39,011
215,75	40,809
215,96	1587,981
216,18	-708,944
216,39	181,592
216,61	255,600
216,83	201,183
217,04	1608,596
217,26	29,137
217,47	80,692
217,69	231,329
217,91	-62,796
218,12	-75665,000
218,34	64,065
218,55	143,408
218,77	64,621
218,99	161,488
219,20	-127,627
219,42	267,630
219,63	24,808
219,85	32,365
220,06	-86,288
220,28	88,280
220,50	135,480
220,71	82,182
220,93	2412,547
221,14	-945,650
221,36	115,172
221,58	-65,573
221,79	72,070
222,01	954,871
222,22	385,296
222,44	-1101,517
222,65	-22,284
222,87	-43,601
223,09	156,675
223,30	21,950
223,52	89,624
223,73	117,320
223,95	-29,063
224,16	169,000
224,38	317,927
224,60	51,139
224,81	154,675
225,03	61,525
225,24	209,612
225,46	-41,752
225,67	-6,948
225,89	41,315
226,10	268,569
226,32	-143,480
226,54	0,789
226,75	15,556
226,97	80,358
227,18	74,078
227,40	-14,444
227,61	26,023
227,83	57,304
228,04	95,656
228,26	35,995
228,47	65,431
228,69	135,024
228,91	167,195
229,12	-1,245
229,34	54,919
229,55	37,253
229,77	30,575
229,98	7,806
230,20	59,850
230,41	-5,913
230,63	13,730
230,84	-7,704
231,06	-2,783
231,27	24,669
231,49	50,960
231,71	-18,929
231,92	11,133
232,14	34,356
232,35	80,876
232,57	85,871
232,78	8,383
233,00	61,784
233,21	40,596
233,43	17,959
233,64	15,733
233,86	29,501
234,07	11,947
234,29	17,148
234,50	17,311
234,72	27,624
234,93	-13,130
235,15	18,857
235,36	25,513
235,58	22,720
235,79	34,707
236,01	21,069
236,22	13,912
236,44	43,410
236,65	4,275
236,87	4,178
237,08	3,439
237,30	-9,547
237,51	26,566
237,73	-0,537
237,94	6,553
238,16	15,863
238,37	9,933
238,59	8,479
238,80	8,046
239,02	5,610
239,23	13,514
239,45	-12,203
239,66	16,556
239,88	19,287
240,09	20,878
240,31	-6,610
240,52	-6,795
240,74	4,008
240,95	-1,039
241,17	5,685
241,38	8,687
241,60	13,955
241,81	19,535
242,03	15,022
242,24	10,152
242,46	25,658
242,67	2,439
242,89	10,573
243,10	14,883
243,32	17,491
243,53	11,501
243,75	7,427
243,96	8,253
244,18	3,790
244,39	11,818
244,60	12,751
244,82	5,743
245,03	17,543
245,25	8,586
245,46	16,296
245,68	4,303
245,89	15,744
246,11	2,288
246,32	9,813
246,54	4,843
246,75	10,222
246,97	2,811
247,18	16,037
247,39	4,932
247,61	6,527
247,82	0,059
248,04	7,115
248,25	2,315
248,47	7,032
248,68	11,620
248,90	3,213
249,11	11,039
249,33	13,390
249,54	6,254
249,75	9,752
249,97	3,722
250,18	9,297
250,40	13,729
250,61	-6,221
250,83	5,049
251,04	-0,284
251,25	13,036
251,47	3,475
251,68	6,281
251,90	10,004
252,11	3,072
252,33	3,086
252,54	6,040
252,76	4,750
252,97	5,099
253,18	3,745
253,40	2,296
253,61	3,567
253,83	11,048
254,04	9,398
254,25	5,974
254,47	2,874
254,68	5,785
254,90	3,776
255,11	5,260
255,33	4,844
255,54	4,274
255,75	2,464
255,97	4,565
256,18	3,834
256,40	8,655
256,61	5,196
256,82	-2,426
257,04	10,752
257,25	-0,560
257,47	8,316
257,68	5,134
257,89	8,601
258,11	9,146
258,32	1,048
258,54	7,167
258,75	12,009
258,96	6,588
259,18	9,868
259,39	0,733
259,61	7,853
259,82	5,299
260,03	5,631
260,25	3,038
260,46	5,951
260,68	6,759
260,89	4,883
261,10	7,777
261,32	6,374
261,53	3,477
261,75	4,877
261,96	1,833
262,17	11,227
262,39	9,888
262,60	0,450
262,81	0,086
263,03	7,610
263,24	5,167
263,46	-1,965
263,67	-0,227
263,88	3,845
264,10	7,019
264,31	0,542
264,52	3,069
264,74	7,869
264,95	6,718
265,17	4,705
265,38	4,655
265,59	7,557
265,81	7,232
266,02	2,711
266,23	-0,112
266,45	10,177
266,66	7,717
266,87	7,468
267,09	1,992
267,30	6,006
267,52	7,135
267,73	-0,300
267,94	7,661
268,16	5,413
268,37	6,010
268,58	6,348
268,80	4,370
269,01	5,512
269,22	5,928
269,44	6,185
269,65	3,221
269,86	3,881
270,08	7,914
270,29	0,230
270,50	5,335
270,72	7,564
270,93	2,498
271,14	2,559
271,36	2,094
271,57	1,662
271,78	5,925
272,00	6,989
272,21	2,802
272,42	6,430
272,64	7,779
272,85	-0,034
273,06	4,313
273,28	6,489
273,49	4,847
273,70	7,987
273,92	5,240
274,13	9,683
274,34	8,632
274,56	3,991
274,77	-1,528
274,98	6,494
275,20	7,454
275,41	9,012
275,62	4,208
275,84	5,090
276,05	8,984
276,26	4,587
276,47	0,003
276,69	6,989
276,90	4,850
277,11	1,707
277,33	2,639
277,54	6,825
277,75	5,774
277,97	4,840
278,18	6,385
278,39	5,484
278,61	4,542
278,82	7,435
279,03	5,811
279,24	6,359
279,46	4,258
279,67	6,794
279,88	6,631
280,10	3,736
280,31	1,362
280,52	7,967
280,73	3,002
280,95	5,197
281,16	4,640
281,37	6,261
281,59	7,210
281,80	5,390
282,01	5,662
282,22	4,644
282,44	-0,536
282,65	8,803
282,86	10,419
283,08	3,166
283,29	3,723
283,50	5,528
283,71	7,123
283,93	6,620
284,14	6,789
284,35	1,452
284,56	4,481
284,78	1,868
284,99	4,408
285,20	6,856
285,42	5,776
285,63	2,758
285,84	0,587
286,05	2,345
286,27	3,693
286,48	3,601
286,69	3,422
286,90	5,813
287,12	2,754
287,33	3,171
287,54	4,311
287,75	4,902
287,97	5,142
288,18	6,906
288,39	4,083
288,60	6,043
288,82	5,923
289,03	2,583
289,24	4,176
289,45	5,549
289,67	4,442
289,88	2,558
290,09	4,764
290,30	5,690
290,52	3,442
290,73	2,398
290,94	2,805
291,15	5,766
291,37	5,788
291,58	4,619
291,79	4,379
292,00	3,759
292,21	4,533
292,43	2,704
292,64	0,469
292,85	3,939
293,06	6,852
293,28	3,577
293,49	1,216
293,70	5,981
293,91	2,742
294,12	4,625
294,34	4,521
294,55	3,373
294,76	4,214
294,97	9,110
295,19	3,840
295,40	4,830
295,61	3,233
295,82	2,450
296,03	5,181
296,25	4,775
296,46	1,945
296,67	1,211
296,88	1,217
297,09	6,071
297,31	3,380
297,52	2,804
297,73	1,327
297,94	5,473
298,15	5,047
298,37	3,281
298,58	4,784
298,79	3,825
299,00	2,145
299,21	0,456
299,43	2,068
299,64	6,879
299,85	5,170
300,06	2,808
300,27	2,351
300,49	6,296
300,70	4,739
300,91	3,629
301,12	2,090
301,33	6,302
301,54	2,409
301,76	5,616
301,97	3,493
302,18	1,395
302,39	7,023
302,60	5,244
302,82	5,920
303,03	6,579
303,24	5,870
303,45	4,521
303,66	5,215
303,87	3,180
304,09	5,814
304,30	1,679
304,51	2,115
304,72	3,518
304,93	5,064
305,14	5,245
305,36	2,710
305,57	2,647
305,78	4,837
305,99	3,410
306,20	2,709
306,41	1,686
306,62	3,758
306,84	3,023
307,05	0,344
307,26	5,305
307,47	7,392
307,68	4,569
307,89	2,957
308,11	5,331
308,32	1,431
308,53	3,426
308,74	3,547
308,95	3,437
309,16	3,997
309,37	8,428
309,59	4,987
309,80	4,480
310,01	6,418
310,22	6,194
310,43	1,557
310,64	6,280
310,85	4,990
311,06	2,771
311,28	5,350
311,49	1,551
311,70	7,425
311,91	2,070
312,12	3,153
312,33	2,679
312,54	4,392
312,75	3,333
312,97	1,931
313,18	5,376
313,39	2,144
313,60	3,600
313,81	5,285
314,02	6,625
314,23	3,905
314,44	0,556
314,65	3,676
314,87	3,613
315,08	2,946
315,29	5,266
315,50	5,564
315,71	5,159
315,92	6,183
316,13	4,961
316,34	4,058
316,55	4,596
316,77	3,862
316,98	0,996
317,19	4,569
317,40	5,557
317,61	5,396
317,82	3,596
318,03	4,022
318,24	2,933
318,45	5,182
318,66	1,703
318,87	0,661
319,09	5,339
319,30	4,021
319,51	6,023
319,72	7,803
319,93	8,506
320,14	8,045
320,35	4,898
320,56	5,563
320,77	3,408
320,98	11,348
321,19	5,123
321,40	3,702
321,62	4,616
321,83	3,890
322,04	3,674
322,25	5,908
322,46	8,481
322,67	4,435
322,88	5,134
323,09	5,302
323,30	6,483
323,51	5,482
323,72	6,178
323,93	3,368
324,14	5,433
324,35	2,505
324,56	1,696
324,77	2,938
324,99	4,141
325,20	0,280
325,41	5,080
325,62	3,341
325,83	1,265
326,04	4,378
326,25	5,888
326,46	2,187
326,67	3,260
326,88	5,992
327,09	1,511
327,30	4,812
327,51	3,663
327,72	3,164
327,93	5,041
328,14	1,031
328,35	3,328
328,56	5,630
328,77	5,001
328,98	5,831
329,19	5,684
329,40	7,029
329,61	3,481
329,82	0,776
330,04	4,351
330,25	3,129
330,46	5,786
330,67	2,822
330,88	3,446
331,09	2,650
331,30	2,946
331,51	5,296
331,72	5,352
331,93	4,382
332,14	5,093
332,35	3,130
332,56	2,557
332,77	4,946
332,98	1,315
333,19	3,077
333,40	4,550
333,61	1,923
333,82	6,753
334,03	4,486
334,24	5,107
334,45	3,514
334,66	5,592
334,87	7,187
335,08	1,115
335,29	0,320
335,50	2,679
335,71	1,575
335,92	6,563
336,13	5,318
336,34	1,854
336,55	6,312
336,76	6,954
336,97	7,528
337,18	1,004
337,39	2,876
337,60	2,220
337,81	5,294
338,02	3,452
338,23	5,281
338,44	4,020
338,65	5,164
338,86	6,354
339,07	3,249
339,28	4,271
339,49	4,028
339,70	2,576
339,91	5,436
340,11	8,221
340,32	3,014
340,53	3,914
340,74	0,456
340,95	0,193
341,16	5,582
341,37	3,072
341,58	1,607
341,79	5,413
342,00	4,237
342,21	4,277
342,42	5,390
342,63	4,798
342,84	1,163
343,05	4,720
343,26	5,018
343,47	2,882
343,68	0,030
343,89	3,949
344,10	4,025
344,31	5,638
344,52	5,350
344,73	3,938
344,94	4,246
345,14	5,185
345,35	4,368
345,56	3,151
345,77	5,614
345,98	4,200
346,19	4,616
346,40	4,184
346,61	1,869
346,82	3,128
347,03	3,859
347,24	9,088
347,45	4,371
347,66	6,216
347,87	4,331
348,08	3,823
348,28	0,858
348,49	6,166
348,70	7,962
348,91	7,098
349,12	3,510
349,33	14,292
349,54	4,394
349,75	3,667
349,96	4,235
350,17	4,976
350,38	2,048
350,59	5,941
350,80	3,944
351,00	6,252
351,21	9,037
351,42	5,911
351,63	2,396
351,84	6,118
352,05	6,001
352,26	3,112
352,47	3,885
352,68	5,015
352,89	5,298
353,09	5,504
353,30	3,012
353,51	2,549
353,72	6,637
353,93	6,168
354,14	-0,121
354,35	4,419
354,56	8,027
354,77	5,820
354,98	1,318
355,18	6,026
355,39	9,523
355,60	3,264
355,81	4,285
356,02	5,147
356,23	1,769
356,44	4,140
356,65	3,232
356,85	9,622
357,06	5,273
357,27	7,708
357,48	3,630
357,69	5,072
357,90	5,676
358,11	2,179
358,32	3,761
358,52	5,109
358,73	3,754
358,94	5,957
359,15	4,846
359,36	4,784
359,57	5,737
359,78	2,893
359,98	2,614
360,19	3,406
360,40	4,144
360,61	5,751
360,82	3,889
361,03	6,565
361,24	5,504
361,44	2,664
361,65	4,907
361,86	3,134
362,07	5,720
362,28	3,605
362,49	3,957
362,70	4,149
362,90	4,941
363,11	1,663
363,32	2,159
363,53	4,137
363,74	7,722
363,95	6,715
364,15	4,098
364,36	7,542
364,57	6,121
364,78	4,252
364,99	3,196
365,20	5,958
365,40	7,414
365,61	2,981
365,82	5,373
366,03	4,781
366,24	5,670
366,45	3,019
366,65	3,943
366,86	0,611
367,07	4,096
367,28	5,230
367,49	5,555
367,69	7,360
367,90	4,371
368,11	3,726
368,32	4,093
368,53	3,937
368,73	7,156
368,94	4,623
369,15	2,960
369,36	6,769
369,57	4,181
369,78	3,874
369,98	3,076
370,19	9,847
370,40	4,385
370,61	6,217
370,82	2,008
371,02	4,943
371,23	9,067
371,44	1,991
371,65	4,373
371,85	3,179
372,06	3,565
372,27	4,128
372,48	3,564
372,69	3,193
372,89	2,707
373,10	4,969
373,31	1,621
373,52	6,585
373,73	6,723
373,93	5,256
374,14	3,228
374,35	9,038
374,56	7,486
374,76	4,475
374,97	1,286
375,18	6,476
375,39	3,004
375,60	5,415
375,80	5,568
376,01	2,128
376,22	4,181
376,43	3,279
376,63	1,523
376,84	3,503
377,05	4,251
377,26	6,015
377,46	1,672
377,67	3,851
377,88	5,791
378,09	6,107
378,29	-0,193
378,50	6,616
378,71	5,341
378,92	5,283
379,12	5,423
379,33	3,953
379,54	7,942
379,75	4,802
379,95	2,053
380,16	7,749
380,37	4,608
380,58	5,903
380,78	9,221
380,99	2,541
381,20	3,611
381,41	4,995
381,61	7,414
381,82	4,207
382,03	1,768
382,24	5,738
382,44	2,188
382,65	1,717
382,86	3,715
383,06	2,455
383,27	4,597
383,48	1,233
383,69	9,869
383,89	4,274
384,10	6,223
384,31	3,358
384,51	3,494
384,72	7,653
384,93	4,508
385,14	5,816
385,34	5,296
385,55	5,240
385,76	1,605
385,96	6,532
386,17	7,197
386,38	5,849
386,59	8,339
386,79	5,906
387,00	9,242
387,21	7,980
387,41	6,678
387,62	3,574
387,83	6,781
388,03	3,042
388,24	1,901
388,45	5,828
388,66	5,752
388,86	4,164
389,07	3,928
389,28	6,506
389,48	6,259
389,69	4,937
389,90	3,215
390,10	6,686
390,31	6,638
390,52	-0,761
390,72	0,883
390,93	6,996
391,14	2,923
391,34	6,377
391,55	4,992
391,76	5,906
391,96	1,321
392,17	2,880
392,38	5,907
392,58	5,995
392,79	5,250
393,00	4,442
393,20	1,812
393,41	3,358
393,62	7,143
393,82	5,811
394,03	4,876
394,24	4,318
394,44	7,365
394,65	4,572
394,86	2,677
395,06	5,735
395,27	1,316
395,48	2,734
395,68	6,076
395,89	5,487
396,10	5,462
396,30	0,952
396,51	4,912
396,72	10,174
396,92	3,208
397,13	5,067
397,34	1,968
397,54	7,234
397,75	5,667
397,95	4,924
398,16	4,041
398,37	2,008
398,57	7,043
398,78	6,701
398,99	7,380
399,19	5,083
399,40	1,850
399,60	2,870
399,81	3,742
400,02	3,102
400,22	7,343
400,43	4,584
400,64	5,562
400,84	3,183
401,05	5,899
401,25	7,974
401,46	2,919
401,67	5,617
401,87	2,857
402,08	-1,554
402,29	3,340
402,49	6,181
402,70	8,762
402,90	-0,030
403,11	2,696
403,32	5,480
403,52	5,458
403,73	6,990
403,93	7,963
404,14	6,764
404,35	4,790
404,55	0,937
404,76	1,579
404,96	2,565
405,17	4,196
405,38	7,716
405,58	3,250
405,79	6,381
405,99	4,828
406,20	4,074
406,40	-0,071
406,61	5,985
406,82	1,201
407,02	8,391
407,23	4,564
407,43	5,521
407,64	2,427
407,85	7,180
408,05	-1,789
408,26	10,899
408,46	5,737
408,67	0,205
408,87	3,673
409,08	4,687
409,29	6,058
409,49	6,893
409,70	5,011
409,90	3,590
410,11	5,726
410,31	8,039
410,52	3,526
410,72	3,922
410,93	7,141
411,14	2,153
411,34	1,544
411,55	8,679
411,75	8,999
411,96	6,891
412,16	3,626
412,37	3,719
412,57	7,741
412,78	5,318
412,99	5,342
413,19	6,427
413,40	5,794
413,60	2,701
413,81	4,050
414,01	6,869
414,22	0,258
414,42	2,265
414,63	0,305
414,83	6,323
415,04	7,136
415,24	5,955
415,45	3,652
415,65	4,221
415,86	5,700
416,07	1,970
416,27	4,608
416,48	5,871
416,68	6,159
416,89	4,438
417,09	1,857
417,30	6,599
417,50	4,220
417,71	6,755
417,91	9,783
418,12	1,378
418,32	2,538
418,53	5,171
418,73	6,173
418,94	7,623
419,14	4,622
419,35	0,365
419,55	2,111
419,76	3,689
419,96	1,820
420,17	3,143
420,37	4,682
420,58	8,901
420,78	5,168
420,99	5,246
421,19	4,266
421,40	4,815
421,60	5,147
421,81	4,467
422,01	4,213
422,22	4,304
422,42	2,128
422,63	4,988
422,83	1,955
423,04	9,244
423,24	7,426
423,45	-0,215
423,65	5,349
423,86	8,125
424,06	6,187
424,27	2,165
424,47	3,098
424,67	1,848
424,88	4,642
425,08	3,780
425,29	7,726
425,49	3,997
425,70	2,203
425,90	6,764
426,11	6,964
426,31	3,570
426,52	4,117
426,72	1,814
426,93	3,894
427,13	5,675
427,33	4,996
427,54	9,936
427,74	6,796
427,95	9,937
428,15	4,992
428,36	5,011
428,56	5,584
428,77	7,127
428,97	3,281
429,18	3,569
429,38	2,438
429,58	6,756
429,79	6,144
429,99	4,289
430,20	-0,377
430,40	8,642
430,61	-1,088
430,81	1,977
431,01	6,809
431,22	6,019
431,42	5,801
431,63	2,898
431,83	3,273
432,04	4,243
432,24	12,327
432,44	2,265
432,65	4,685
432,85	6,031
433,06	4,223
433,26	4,259
433,47	1,395
433,67	6,281
433,87	4,869
434,08	2,294
434,28	7,004
434,49	3,112
434,69	7,843
434,89	2,265
435,10	3,145
435,30	3,442
435,51	1,416
435,71	2,640
435,91	4,285
436,12	7,478
436,32	7,125
436,53	2,683
436,73	1,351
436,93	5,255
437,14	3,075
437,34	4,455
437,55	2,807
437,75	4,208
437,95	4,328
438,16	6,876
438,36	5,107
438,57	3,720
438,77	3,843
438,97	4,578
439,18	7,569
439,38	2,518
439,58	2,326
439,79	1,683
439,99	3,764
440,20	10,219
440,40	6,332
440,60	2,950
440,81	4,376
441,01	2,386
441,21	3,428
441,42	7,479
441,62	4,481
441,83	5,192
442,03	2,454
442,23	4,581
442,44	2,646
442,64	2,976
442,84	1,501
443,05	5,137
443,25	3,294
443,45	4,803
443,66	6,220
443,86	3,806
444,06	2,050
444,27	0,393
444,47	3,187
444,67	-2,871
444,88	4,422
445,08	6,506
445,28	3,369
445,49	2,171
445,69	2,271
445,90	5,672
446,10	7,284
446,30	6,849
446,51	4,307
446,71	7,929
446,91	7,393
447,12	9,546
447,32	1,733
447,52	3,053
447,72	6,341
447,93	5,321
448,13	-3,317
448,33	9,590
448,54	2,828
448,74	2,467
448,94	9,348
449,15	9,905
449,35	0,271
449,55	4,073
449,76	7,915
449,96	7,096
450,16	9,747
450,37	-0,037
450,57	7,787
450,77	0,162
450,98	8,074
451,18	6,093
451,38	4,346
451,58	3,015
451,79	6,239
451,99	8,295
452,19	4,808
452,40	2,974
452,60	3,394
452,80	6,204
453,00	4,344
453,21	8,634
453,41	8,804
453,61	3,466
453,82	5,978
454,02	0,326
454,22	5,874
454,42	8,499
454,63	-2,130
454,83	5,381
455,03	8,877
455,24	6,241
455,44	4,064
455,64	4,559
455,84	3,285
456,05	0,879
456,25	4,289
456,45	6,165
456,65	2,508
456,86	5,531
457,06	7,154
457,26	10,020
457,47	8,795
457,67	6,416
