Fichero De Datos De SpectraSuite
++++++++++++++++++++++++++++++++++++
Fecha: Wed Apr 22 11:04:16 CEST 2009
Usuario: evoflor
Presente Oscuro Del Espectro: Sí
La Referencia de Presente Del Espectro De: Sí
Muestreados de los componentes de Número de espectros: 1
Espectrómetros: USB4F02353
Tiempo de integración (usec): 500000 (USB4F02353)
Promedio de Espectros Hechos un: 5 (USB4F02353)
El Alisar Del Furgón: 0 (USB4F02353)
Párrafo de de Corregir del la del del de Eléctrica del obscuridad: Sí (USB4F02353)
Estrobo/Lámpara Permitido: No (USB4F02353)
Correct for Detector Non-linearity: No (USB4F02353)
Párrafo de de Corregir del la del del de Externa del luz: No (USB4F02353)
Procesado del espectro de Número de pixeles en: 3648
>>>>> Comienza Data<<<<< Espectral Procesado Del EL
177,79	198,194
178,00	198,194
178,22	198,194
178,44	1055,659
178,66	-90,093
178,88	31,482
179,09	-112,064
179,31	185,104
179,53	354,598
179,75	52,214
179,96	506,336
180,18	-272,108
180,40	657,118
180,62	225,027
180,83	-277,955
181,05	-990,671
181,27	-62335,000
181,49	46,446
181,70	49,365
181,92	403,223
182,14	260,949
182,36	252,514
182,58	141,650
182,79	647,924
183,01	-4,849
183,23	168,598
183,45	-97,646
183,66	-1,040
183,88	435,500
184,10	-2638,818
184,32	16,176
184,53	194,126
184,75	-98,631
184,97	80,520
185,18	-125,630
185,40	-507,380
185,62	133,403
185,84	4,443
186,05	97,671
186,27	-80,191
186,49	2432,115
186,71	-64,014
186,92	160,260
187,14	25,598
187,36	71,699
187,58	94,583
187,79	-94,734
188,01	131,121
188,23	-49,247
188,45	79,204
188,66	354,621
188,88	-3506,091
189,10	-1613,350
189,31	-46,476
189,53	62,838
189,75	160,080
189,97	367,827
190,18	-64,657
190,40	567,853
190,62	3,942
190,83	-352,403
191,05	223,585
191,27	286,100
191,49	388,205
191,70	-446,803
191,92	-246,059
192,14	-37,775
192,35	418,395
192,57	4018,143
192,79	35,193
193,01	124,889
193,22	159,680
193,44	-158,592
193,66	75,885
193,87	173,951
194,09	10,517
194,31	133,414
194,53	530,315
194,74	74,411
194,96	91,221
195,18	105,440
195,39	-83,734
195,61	-103,427
195,83	-23,989
196,04	149,957
196,26	-399,171
196,48	40,106
196,70	134,662
196,91	51,387
197,13	114,519
197,35	-67,901
197,56	390,820
197,78	1177,127
198,00	215,629
198,21	119,102
198,43	-744,390
198,65	148,196
198,86	224,227
199,08	92,246
199,30	117,075
199,51	-425,847
199,73	150,549
199,95	258,998
200,16	447,442
200,38	184,414
200,60	38,852
200,81	401,360
201,03	76,454
201,25	-1082,350
201,46	203,059
201,68	73,172
201,90	3196,250
202,11	-327,233
202,33	136,149
202,55	520,437
202,76	-53,816
202,98	283,049
203,20	176,274
203,41	-342,289
203,63	100,362
203,85	-201835,000
204,06	46,485
204,28	66,663
204,50	-24,356
204,71	211,899
204,93	124,280
205,15	49,503
205,36	-155,325
205,58	157,649
205,80	-58,381
206,01	78,128
206,23	113,910
206,45	245,288
206,66	146,240
206,88	-136,529
207,10	268,489
207,31	293,556
207,53	121,529
207,75	92,865
207,96	1022,649
208,18	-143,234
208,39	45,682
208,61	4223,857
208,83	-289,617
209,04	289,582
209,26	-241,636
209,48	356,531
209,69	157,153
209,91	183,226
210,13	46,875
210,34	231,562
210,56	156,488
210,77	-1603,425
210,99	104,801
211,21	2290,294
211,42	-87,058
211,64	61,709
211,86	156,522
212,07	177,218
212,29	214,462
212,50	101,461
212,72	118,596
212,94	87,684
213,15	150,978
213,37	115,388
213,58	-46,419
213,80	-1390,536
214,02	10231,471
214,23	325,611
214,45	257,492
214,67	-408,963
214,88	-233,339
215,10	-255,519
215,31	-156,692
215,53	-71,057
215,75	83,365
215,96	1125,062
216,18	-224,859
216,39	61,662
216,61	356,190
216,83	-219,933
217,04	1094,775
217,26	86,024
217,47	22,508
217,69	226,513
217,91	-123,544
218,12	-17335,000
218,34	161,279
218,55	98,501
218,77	70,411
218,99	103,041
219,20	-77,320
219,42	255,541
219,63	89,691
219,85	-61,491
220,06	7,827
220,28	213,134
220,50	25,329
220,71	87,834
220,93	2772,358
221,14	-1415,350
221,36	76,989
221,58	24,118
221,79	72,482
222,01	397,716
222,22	877,862
222,44	-361,404
222,65	115,913
222,87	-117,937
223,09	108,933
223,30	36,955
223,52	148,620
223,73	162,734
223,95	-16,148
224,16	245,433
224,38	258,614
224,60	122,656
224,81	-7,807
225,03	64,686
225,24	124,209
225,46	21,321
225,67	-37,609
225,89	60,386
226,10	369,383
226,32	736,280
226,54	-86,643
226,75	63,228
226,97	89,402
227,18	50,903
227,40	42,281
227,61	49,899
227,83	71,873
228,04	96,544
228,26	36,832
228,47	21,566
228,69	145,024
228,91	103,014
229,12	42,134
229,34	38,812
229,55	41,592
229,77	9,264
229,98	16,155
230,20	74,335
230,41	12,068
230,63	46,480
230,84	-36,016
231,06	19,391
231,27	-8,731
231,49	41,198
231,71	26,769
231,92	13,508
232,14	16,487
232,35	87,660
232,57	30,552
232,78	41,584
233,00	30,793
233,21	38,677
233,43	-6,080
233,64	11,041
233,86	30,078
234,07	29,619
234,29	22,947
234,50	0,996
234,72	22,539
234,93	14,020
235,15	25,958
235,36	5,177
235,58	7,685
235,79	23,854
236,01	17,944
236,22	2,119
236,44	51,579
236,65	26,769
236,87	30,401
237,08	12,611
237,30	-18,010
237,51	9,582
237,73	-4,063
237,94	7,246
238,16	21,367
238,37	9,827
238,59	6,622
238,80	14,959
239,02	5,629
239,23	13,294
239,45	-8,272
239,66	13,903
239,88	25,552
240,09	23,729
240,31	1,949
240,52	2,611
240,74	2,839
240,95	3,584
241,17	9,855
241,38	6,776
241,60	6,762
241,81	20,340
242,03	10,035
242,24	7,188
242,46	16,526
242,67	1,433
242,89	5,304
243,10	14,969
243,32	15,430
243,53	2,549
243,75	6,265
243,96	5,666
244,18	9,408
244,39	9,044
244,60	4,010
244,82	3,160
245,03	16,582
245,25	5,210
245,46	11,175
245,68	6,226
245,89	15,051
246,11	8,682
246,32	10,091
246,54	7,465
246,75	9,367
246,97	7,150
247,18	20,283
247,39	4,439
247,61	4,183
247,82	4,982
248,04	7,408
248,25	7,681
248,47	12,458
248,68	7,924
248,90	1,858
249,11	11,366
249,33	12,572
249,54	10,004
249,75	8,781
249,97	2,510
250,18	11,577
250,40	11,351
250,61	-3,355
250,83	1,275
251,04	3,704
251,25	8,684
251,47	0,265
251,68	8,559
251,90	5,574
252,11	9,311
252,33	8,828
252,54	8,997
252,76	7,247
252,97	2,774
253,18	6,087
253,40	1,769
253,61	-0,700
253,83	9,572
254,04	9,949
254,25	5,439
254,47	3,429
254,68	9,235
254,90	4,628
255,11	11,123
255,33	4,578
255,54	4,236
255,75	5,784
255,97	6,744
256,18	-0,737
256,40	8,618
256,61	4,861
256,82	0,929
257,04	9,255
257,25	2,267
257,47	5,731
257,68	5,226
257,89	10,780
258,11	9,560
258,32	2,352
258,54	8,390
258,75	11,090
258,96	12,357
259,18	6,997
259,39	5,295
259,61	6,024
259,82	3,472
260,03	3,142
260,25	5,838
260,46	2,152
260,68	6,850
260,89	5,611
261,10	4,302
261,32	4,970
261,53	2,547
261,75	6,803
261,96	0,094
262,17	9,098
262,39	6,313
262,60	4,445
262,81	2,212
263,03	15,224
263,24	4,065
263,46	2,184
263,67	2,191
263,88	8,103
264,10	5,281
264,31	1,338
264,52	7,505
264,74	10,434
264,95	2,476
265,17	5,977
265,38	6,333
265,59	9,328
265,81	9,489
266,02	2,121
266,23	4,843
266,45	5,328
266,66	9,295
266,87	7,105
267,09	2,795
267,30	7,840
267,52	10,728
267,73	4,471
267,94	2,538
268,16	9,413
268,37	3,966
268,58	5,168
268,80	2,789
269,01	4,104
269,22	7,764
269,44	7,283
269,65	5,604
269,86	-0,294
270,08	6,950
270,29	2,054
270,50	4,036
270,72	5,708
270,93	5,303
271,14	0,521
271,36	4,522
271,57	5,289
271,78	8,120
272,00	9,300
272,21	5,789
272,42	8,325
272,64	8,183
272,85	-0,100
273,06	3,261
273,28	5,663
273,49	4,172
273,70	6,275
273,92	5,704
274,13	5,894
274,34	4,105
274,56	7,406
274,77	3,605
274,98	4,085
275,20	6,534
275,41	6,027
275,62	3,798
275,84	6,080
276,05	9,232
276,26	4,488
276,47	-1,264
276,69	4,583
276,90	8,135
277,11	6,235
277,33	6,114
277,54	4,569
277,75	1,589
277,97	6,184
278,18	4,372
278,39	9,110
278,61	5,736
278,82	9,010
279,03	5,716
279,24	5,354
279,46	6,791
279,67	9,031
279,88	6,402
280,10	6,187
280,31	2,211
280,52	3,580
280,73	0,602
280,95	5,270
281,16	8,713
281,37	8,342
281,59	5,212
281,80	6,891
282,01	5,367
282,22	3,622
282,44	1,749
282,65	10,138
282,86	7,743
283,08	7,553
283,29	7,698
283,50	6,420
283,71	5,509
283,93	8,487
284,14	6,214
284,35	3,696
284,56	6,447
284,78	4,412
284,99	6,979
285,20	4,865
285,42	6,967
285,63	5,489
285,84	0,593
286,05	4,328
286,27	6,274
286,48	3,756
286,69	2,931
286,90	5,063
287,12	3,305
287,33	4,111
287,54	5,300
287,75	5,114
287,97	4,340
288,18	2,763
288,39	2,092
288,60	5,791
288,82	4,941
289,03	2,366
289,24	6,859
289,45	6,542
289,67	4,447
289,88	3,984
290,09	6,527
290,30	7,970
290,52	4,070
290,73	4,583
290,94	1,601
291,15	5,124
291,37	6,950
291,58	5,371
291,79	4,090
292,00	7,175
292,21	6,660
292,43	3,709
292,64	2,893
292,85	3,515
293,06	5,667
293,28	3,004
293,49	3,702
293,70	6,863
293,91	4,969
294,12	5,275
294,34	4,213
294,55	6,217
294,76	4,508
294,97	6,681
295,19	3,496
295,40	5,726
295,61	5,552
295,82	3,512
296,03	5,415
296,25	3,988
296,46	3,483
296,67	3,534
296,88	0,639
297,09	7,156
297,31	5,214
297,52	3,516
297,73	4,253
297,94	6,950
298,15	7,139
298,37	3,510
298,58	6,166
298,79	6,617
299,00	4,191
299,21	1,923
299,43	3,459
299,64	6,495
299,85	7,452
300,06	2,789
300,27	2,816
300,49	6,935
300,70	2,078
300,91	4,908
301,12	1,722
301,33	7,626
301,54	2,985
301,76	3,326
301,97	2,243
302,18	2,619
302,39	7,261
302,60	4,626
302,82	5,606
303,03	6,800
303,24	4,296
303,45	3,372
303,66	4,571
303,87	5,632
304,09	9,358
304,30	4,915
304,51	2,287
304,72	3,760
304,93	6,575
305,14	4,463
305,36	1,812
305,57	3,889
305,78	5,403
305,99	2,897
306,20	3,665
306,41	1,300
306,62	3,514
306,84	3,847
307,05	1,573
307,26	3,060
307,47	9,606
307,68	3,918
307,89	3,963
308,11	6,575
308,32	1,214
308,53	4,858
308,74	2,616
308,95	4,416
309,16	5,157
309,37	6,705
309,59	3,479
309,80	4,880
310,01	7,773
310,22	4,289
310,43	2,315
310,64	5,855
310,85	4,605
311,06	3,914
311,28	2,305
311,49	1,919
311,70	7,695
311,91	2,242
312,12	5,597
312,33	7,894
312,54	5,256
312,75	3,820
312,97	2,900
313,18	7,632
313,39	3,293
313,60	5,859
313,81	3,496
314,02	5,064
314,23	6,123
314,44	3,645
314,65	4,647
314,87	4,144
315,08	3,806
315,29	6,425
315,50	5,890
315,71	4,756
315,92	6,188
316,13	5,777
316,34	5,559
316,55	4,210
316,77	0,990
316,98	4,182
317,19	6,266
317,40	5,905
317,61	8,060
317,82	3,745
318,03	2,882
318,24	4,666
318,45	3,759
318,66	6,568
318,87	2,938
319,09	6,068
319,30	5,067
319,51	4,725
319,72	7,312
319,93	8,635
320,14	5,498
320,35	3,801
320,56	4,103
320,77	1,034
320,98	8,910
321,19	4,176
321,40	4,768
321,62	6,280
321,83	3,128
322,04	4,424
322,25	3,309
322,46	8,513
322,67	6,398
322,88	2,664
323,09	4,470
323,30	4,153
323,51	5,407
323,72	6,384
323,93	3,832
324,14	3,550
324,35	2,791
324,56	2,813
324,77	2,649
324,99	3,852
325,20	0,083
325,41	5,393
325,62	4,676
325,83	1,948
326,04	3,098
326,25	5,223
326,46	0,782
326,67	4,015
326,88	4,545
327,09	4,581
327,30	4,385
327,51	6,597
327,72	5,804
327,93	5,703
328,14	1,653
328,35	5,474
328,56	7,410
328,77	3,485
328,98	4,290
329,19	4,073
329,40	7,676
329,61	5,452
329,82	0,394
330,04	5,199
330,25	3,108
330,46	4,478
330,67	4,354
330,88	2,825
331,09	3,687
331,30	5,869
331,51	2,601
331,72	4,516
331,93	6,445
332,14	1,627
332,35	5,907
332,56	3,547
332,77	10,289
332,98	1,951
333,19	4,895
333,40	4,978
333,61	0,559
333,82	5,727
334,03	5,291
334,24	4,876
334,45	4,377
334,66	6,684
334,87	3,162
335,08	1,173
335,29	3,930
335,50	3,943
335,71	2,393
335,92	5,827
336,13	6,449
336,34	5,027
336,55	5,707
336,76	6,640
336,97	3,366
337,18	4,120
337,39	4,657
337,60	6,001
337,81	3,398
338,02	5,128
338,23	3,526
338,44	3,972
338,65	4,748
338,86	6,065
339,07	3,281
339,28	5,507
339,49	6,885
339,70	3,617
339,91	1,352
340,11	6,319
340,32	2,287
340,53	3,812
340,74	1,183
340,95	4,652
341,16	6,665
341,37	3,756
341,58	3,024
341,79	2,342
342,00	5,898
342,21	4,256
342,42	2,864
342,63	3,168
342,84	0,489
343,05	5,403
343,26	4,409
343,47	4,722
343,68	-0,669
343,89	2,420
344,10	4,834
344,31	5,944
344,52	4,436
344,73	1,449
344,94	6,055
345,14	5,273
345,35	6,166
345,56	6,002
345,77	4,216
345,98	2,449
346,19	4,479
346,40	1,354
346,61	3,072
346,82	2,824
347,03	3,104
347,24	6,429
347,45	3,172
347,66	7,475
347,87	3,843
348,08	4,763
348,28	3,458
348,49	4,559
348,70	7,083
348,91	4,643
349,12	3,117
349,33	16,743
349,54	3,265
349,75	6,621
349,96	4,404
350,17	4,696
350,38	0,855
350,59	6,323
350,80	5,739
351,00	7,669
351,21	4,286
351,42	5,178
351,63	1,050
351,84	3,066
352,05	6,320
352,26	3,566
352,47	2,869
352,68	6,786
352,89	8,445
353,09	8,509
353,30	1,663
353,51	4,981
353,72	6,165
353,93	5,969
354,14	1,210
354,35	2,893
354,56	3,714
354,77	5,278
354,98	-0,082
355,18	2,711
355,39	5,647
355,60	3,905
355,81	5,728
356,02	5,513
356,23	3,049
356,44	5,795
356,65	5,869
356,85	10,213
357,06	6,411
357,27	8,455
357,48	3,996
357,69	5,873
357,90	6,197
358,11	0,443
358,32	3,140
358,52	4,264
358,73	4,823
358,94	1,594
359,15	8,341
359,36	5,465
359,57	3,254
359,78	4,573
359,98	4,781
360,19	2,809
360,40	5,971
360,61	6,705
360,82	4,231
361,03	8,226
361,24	4,651
361,44	5,120
361,65	3,247
361,86	2,556
362,07	4,527
362,28	1,973
362,49	3,781
362,70	2,763
362,90	5,685
363,11	3,835
363,32	0,100
363,53	4,729
363,74	9,657
363,95	6,631
364,15	5,518
364,36	5,443
364,57	3,151
364,78	3,604
364,99	4,373
365,20	3,771
365,40	5,878
365,61	1,020
365,82	4,281
366,03	6,019
366,24	4,027
366,45	3,634
366,65	4,596
366,86	5,613
367,07	5,878
367,28	3,240
367,49	4,135
367,69	9,219
367,90	2,361
368,11	4,018
368,32	4,508
368,53	5,452
368,73	5,989
368,94	4,628
369,15	0,770
369,36	6,475
369,57	2,066
369,78	4,785
369,98	4,469
370,19	7,714
370,40	1,694
370,61	3,675
370,82	4,081
371,02	5,571
371,23	8,406
371,44	6,921
371,65	2,256
371,85	5,342
372,06	2,915
372,27	3,056
372,48	5,183
372,69	3,199
372,89	-0,252
373,10	3,524
373,31	2,921
373,52	6,651
373,73	9,051
373,93	5,475
374,14	4,518
374,35	3,976
374,56	4,967
374,76	3,821
374,97	3,232
375,18	5,540
375,39	5,670
375,60	6,829
375,80	6,414
376,01	2,996
376,22	3,691
376,43	6,770
376,63	5,513
376,84	1,946
377,05	7,391
377,26	2,567
377,46	2,969
377,67	2,927
377,88	7,178
378,09	4,763
378,29	2,675
378,50	6,354
378,71	4,558
378,92	2,030
379,12	4,767
379,33	2,221
379,54	8,010
379,75	5,090
379,95	4,668
380,16	8,183
380,37	8,092
380,58	4,005
380,78	5,365
380,99	2,039
381,20	4,905
381,41	5,668
381,61	7,606
381,82	1,132
382,03	6,645
382,24	3,565
382,44	1,877
382,65	4,878
382,86	4,086
383,06	4,715
383,27	6,704
383,48	3,182
383,69	4,170
383,89	6,265
384,10	5,795
384,31	3,726
384,51	6,267
384,72	6,320
384,93	5,566
385,14	4,718
385,34	5,848
385,55	1,252
385,76	1,578
385,96	7,569
386,17	4,926
386,38	8,264
386,59	6,358
386,79	4,174
387,00	5,036
387,21	8,787
387,41	6,284
387,62	4,606
387,83	9,875
388,03	5,434
388,24	5,205
388,45	8,202
388,66	7,507
388,86	7,626
389,07	6,202
389,28	9,985
389,48	9,326
389,69	7,950
389,90	8,170
390,10	9,366
390,31	8,027
390,52	2,432
390,72	8,231
390,93	6,340
391,14	5,395
391,34	6,927
391,55	11,288
391,76	9,294
391,96	9,177
392,17	4,644
392,38	8,488
392,58	10,415
392,79	9,442
393,00	5,082
393,20	4,435
393,41	8,562
393,62	6,461
393,82	11,327
394,03	6,685
394,24	8,803
394,44	10,310
394,65	11,449
394,86	7,904
395,06	11,776
395,27	8,292
395,48	8,340
395,68	8,653
395,89	9,479
396,10	9,434
396,30	10,712
396,51	6,801
396,72	15,139
396,92	7,297
397,13	11,048
397,34	8,936
397,54	13,228
397,75	8,441
397,95	8,809
398,16	11,770
398,37	10,287
398,57	12,615
398,78	13,056
398,99	16,307
399,19	15,676
399,40	15,528
399,60	10,579
399,81	14,418
400,02	13,689
400,22	14,007
400,43	15,348
400,64	13,991
400,84	13,706
401,05	14,941
401,25	16,020
401,46	16,591
401,67	19,312
401,87	17,500
402,08	13,126
402,29	13,497
402,49	19,760
402,70	18,431
402,90	16,144
403,11	17,896
403,32	18,480
403,52	17,407
403,73	18,730
403,93	20,344
404,14	21,232
404,35	19,422
404,55	15,378
404,76	17,110
404,96	20,711
405,17	19,144
405,38	22,681
405,58	17,573
405,79	19,146
405,99	22,027
406,20	19,305
406,40	21,980
406,61	19,961
406,82	22,342
407,02	24,713
407,23	22,571
407,43	20,643
407,64	22,912
407,85	21,883
408,05	22,560
408,26	25,562
408,46	26,444
408,67	23,281
408,87	23,104
409,08	23,680
409,29	28,911
409,49	25,019
409,70	24,849
409,90	25,646
410,11	25,997
410,31	28,053
410,52	29,797
410,72	26,571
410,93	27,872
411,14	24,755
411,34	25,396
411,55	31,824
411,75	33,914
411,96	28,561
412,16	27,327
412,37	26,167
412,57	32,625
412,78	29,401
412,99	27,396
413,19	33,728
413,40	28,716
413,60	27,025
413,81	30,366
414,01	31,595
414,22	29,744
414,42	30,156
414,63	29,720
414,83	34,877
415,04	33,084
415,24	34,281
415,45	28,405
415,65	33,393
415,86	34,581
416,07	35,418
416,27	37,067
416,48	35,715
416,68	38,236
416,89	27,687
417,09	34,531
417,30	37,995
417,50	35,398
417,71	37,858
417,91	36,971
418,12	38,413
418,32	34,817
418,53	35,644
418,73	35,535
418,94	35,033
419,14	39,289
419,35	35,036
419,55	37,144
419,76	36,664
419,96	34,168
420,17	39,452
420,37	36,097
420,58	38,291
420,78	40,899
420,99	38,666
421,19	39,062
421,40	36,950
421,60	44,184
421,81	35,458
422,01	41,173
422,22	39,509
422,42	39,816
422,63	40,841
422,83	41,433
423,04	41,390
423,24	42,421
423,45	40,337
423,65	42,163
423,86	45,342
424,06	44,630
424,27	37,707
424,47	43,114
424,67	39,861
424,88	42,055
425,08	40,745
425,29	45,837
425,49	42,677
425,70	38,607
425,90	41,523
426,11	38,934
426,31	41,813
426,52	41,728
426,72	41,733
426,93	41,138
427,13	45,255
427,33	44,215
427,54	41,669
427,74	48,339
427,95	44,490
428,15	40,031
428,36	39,741
428,56	42,558
428,77	43,218
428,97	43,032
429,18	45,732
429,38	40,629
429,58	47,011
429,79	46,718
429,99	44,048
430,20	38,581
430,40	44,131
430,61	45,251
430,81	43,066
431,01	44,734
431,22	46,900
431,42	45,580
431,63	40,167
431,83	44,304
432,04	45,311
432,24	46,851
432,44	42,818
432,65	42,536
432,85	42,824
433,06	46,928
433,26	42,863
433,47	44,051
433,67	43,442
433,87	45,275
434,08	39,126
434,28	43,933
434,49	41,334
434,69	47,375
434,89	40,959
435,10	45,693
435,30	43,553
435,51	42,252
435,71	45,105
435,91	42,706
436,12	47,748
436,32	44,925
436,53	47,198
436,73	41,175
436,93	45,908
437,14	43,898
437,34	44,607
437,55	44,641
437,75	47,136
437,95	47,122
438,16	43,209
438,36	46,584
438,57	44,180
438,77	43,377
438,97	45,581
439,18	48,834
439,38	44,538
439,58	43,337
439,79	47,472
439,99	43,482
440,20	45,599
440,40	48,465
440,60	50,473
440,81	47,935
441,01	43,890
441,21	48,317
441,42	44,901
441,62	51,085
441,83	44,047
442,03	49,189
442,23	47,019
442,44	43,330
442,64	47,148
442,84	42,136
443,05	46,045
443,25	45,640
443,45	46,984
443,66	47,025
443,86	48,653
444,06	46,081
444,27	44,408
444,47	48,030
444,67	44,473
444,88	47,505
445,08	46,688
445,28	46,294
445,49	43,301
445,69	42,070
445,90	50,515
446,10	47,008
446,30	46,815
446,51	48,464
446,71	52,420
446,91	51,923
447,12	50,122
447,32	46,118
447,52	48,886
447,72	47,232
447,93	46,113
448,13	41,958
448,33	54,894
448,54	48,890
448,74	43,723
448,94	49,242
449,15	47,030
449,35	46,042
449,55	50,012
449,76	52,694
449,96	47,032
450,16	52,515
450,37	45,517
450,57	49,106
450,77	45,344
450,98	47,668
451,18	51,553
451,38	47,174
451,58	50,050
451,79	49,702
451,99	44,351
452,19	49,173
452,40	48,106
452,60	46,621
452,80	45,972
453,00	49,381
453,21	47,942
453,41	48,028
453,61	50,436
453,82	49,395
