Fichero De Datos De SpectraSuite
++++++++++++++++++++++++++++++++++++
Fecha: Wed Apr 22 11:02:23 CEST 2009
Usuario: evoflor
Presente Oscuro Del Espectro: Sí
La Referencia de Presente Del Espectro De: Sí
Muestreados de los componentes de Número de espectros: 1
Espectrómetros: USB4F02353
Tiempo de integración (usec): 500000 (USB4F02353)
Promedio de Espectros Hechos un: 5 (USB4F02353)
El Alisar Del Furgón: 0 (USB4F02353)
Párrafo de de Corregir del la del del de Eléctrica del obscuridad: Sí (USB4F02353)
Estrobo/Lámpara Permitido: No (USB4F02353)
Correct for Detector Non-linearity: No (USB4F02353)
Párrafo de de Corregir del la del del de Externa del luz: No (USB4F02353)
Procesado del espectro de Número de pixeles en: 3648
>>>>> Comienza Data<<<<< Espectral Procesado Del EL
177,79	286,698
178,00	286,698
178,22	286,698
178,44	716,154
178,66	-244,483
178,88	358,860
179,09	-247,362
179,31	205,965
179,53	447,461
179,75	82,922
179,96	640,776
180,18	-98,554
180,40	173,662
180,62	190,000
180,83	195,579
181,05	-346,707
181,27	-149930,000
181,49	-10,935
181,70	396,654
181,92	509,797
182,14	291,657
182,36	222,696
182,58	-401,300
182,79	781,830
183,01	-34,535
183,23	135,653
183,45	-245,323
183,66	69,336
183,88	29,588
184,10	-2120,545
184,32	275,322
184,53	111,315
184,75	68,283
184,97	85,853
185,18	15,921
185,40	-205,913
185,62	47,378
185,84	217,314
186,05	-14,897
186,27	-81,665
186,49	4139,615
186,71	12,289
186,92	62,672
187,14	-51,340
187,36	126,770
187,58	88,160
187,79	-19,954
188,01	226,167
188,23	-282,756
188,45	61,367
188,66	179,152
188,88	-2284,182
189,10	-824,300
189,31	-36,229
189,53	35,456
189,75	252,795
189,97	-49,885
190,18	-411,030
190,40	739,000
190,62	-214,433
190,83	-204,144
191,05	221,192
191,27	310,086
191,49	339,926
191,70	-231,875
191,92	-202,797
192,14	17,913
192,35	378,594
192,57	2998,000
192,79	-112,570
193,01	130,816
193,22	145,797
193,44	-65,410
193,66	94,535
193,87	41,606
194,09	37,617
194,31	103,941
194,53	242,867
194,74	167,790
194,96	34,054
195,18	143,993
195,39	-326,728
195,61	-26,908
195,83	-116,587
196,04	74,654
196,26	200,854
196,48	52,082
196,70	176,402
196,91	-31,264
197,13	103,873
197,35	-40,084
197,56	483,684
197,78	1206,194
198,00	702,308
198,21	212,282
198,43	7,384
198,65	84,942
198,86	-11,043
199,08	119,770
199,30	199,656
199,51	-148,306
199,73	127,860
199,95	39,183
200,16	334,346
200,38	102,301
200,60	141,983
200,81	224,690
201,03	16,114
201,25	-1247,300
201,46	136,615
201,68	60,726
201,90	2446,136
202,11	-280,267
202,33	120,521
202,55	-285,875
202,76	-38,707
202,98	-26,376
203,20	-71,779
203,41	-391,211
203,63	113,315
203,85	-116630,000
204,06	57,610
204,28	74,627
204,50	112,907
204,71	136,095
204,93	-312,560
205,15	278,102
205,36	-142,122
205,58	144,395
205,80	-102,379
206,01	97,479
206,23	185,436
206,45	198,974
206,66	133,138
206,88	17,261
207,10	13,477
207,31	366,662
207,53	140,371
207,75	64,151
207,96	467,388
208,18	-102,270
208,39	115,172
208,61	2072,286
208,83	-367,912
209,04	132,184
209,26	-554,055
209,48	281,968
209,69	199,726
209,91	387,939
210,13	80,452
210,34	125,496
210,56	142,883
210,77	-911,260
210,99	32,701
211,21	5272,353
211,42	-150,555
211,64	14,521
211,86	212,979
212,07	199,754
212,29	189,090
212,50	84,711
212,72	154,346
212,94	18,590
213,15	130,246
213,37	71,959
213,58	-178,780
213,80	141,786
214,02	6754,706
214,23	204,617
214,45	376,492
214,67	-1334,512
214,88	-1,779
215,10	-57,975
215,31	-8,668
215,53	-15,159
215,75	166,835
215,96	813,851
216,18	-284,085
216,39	187,246
216,61	260,546
216,83	118,884
217,04	1148,652
217,26	-6,403
217,47	86,824
217,69	229,844
217,91	151,727
218,12	32770,000
218,34	180,195
218,55	187,613
218,77	78,202
218,99	103,337
219,20	-199,238
219,42	286,174
219,63	-196,866
219,85	-36,935
220,06	22,808
220,28	59,029
220,50	49,595
220,71	71,495
220,93	-210,755
221,14	-1211,300
221,36	26,520
221,58	17,036
221,79	3,462
222,01	516,638
222,22	1122,566
222,44	-54,719
222,65	175,518
222,87	582,727
223,09	167,562
223,30	91,164
223,52	236,712
223,73	244,953
223,95	12,155
224,16	242,330
224,38	105,758
224,60	34,705
224,81	-2,947
225,03	86,817
225,24	66,662
225,46	-37,990
225,67	24,207
225,89	-6,374
226,10	381,114
226,32	731,440
226,54	27,661
226,75	92,466
226,97	119,568
227,18	90,883
227,40	9,379
227,61	22,439
227,83	67,436
228,04	36,290
228,26	34,244
228,47	42,191
228,69	138,851
228,91	34,489
229,12	51,385
229,34	41,962
229,55	57,617
229,77	30,390
229,98	53,227
230,20	-5,987
230,41	6,307
230,63	20,848
230,84	-14,161
231,06	35,996
231,27	-7,139
231,49	44,981
231,71	7,227
231,92	40,732
232,14	4,377
232,35	45,821
232,57	49,358
232,78	-4,303
233,00	44,274
233,21	69,202
233,43	7,026
233,64	29,083
233,86	31,743
234,07	31,334
234,29	18,717
234,50	-5,939
234,72	30,644
234,93	-7,273
235,15	22,394
235,36	16,988
235,58	3,834
235,79	32,957
236,01	9,930
236,22	8,083
236,44	28,071
236,65	3,868
236,87	21,669
237,08	3,656
237,30	-17,244
237,51	20,765
237,73	-0,056
237,94	0,613
238,16	18,388
238,37	10,522
238,59	5,322
238,80	14,873
239,02	2,344
239,23	17,349
239,45	8,864
239,66	9,825
239,88	23,945
240,09	26,782
240,31	-3,139
240,52	0,056
240,74	17,039
240,95	3,409
241,17	13,603
241,38	5,265
241,60	8,501
241,81	20,194
242,03	-3,468
242,24	6,409
242,46	13,130
242,67	-0,189
242,89	9,694
243,10	12,598
243,32	11,652
243,53	11,081
243,75	-0,104
243,96	7,474
244,18	5,720
244,39	8,701
244,60	4,173
244,82	-1,053
245,03	13,264
245,25	9,776
245,46	17,975
245,68	6,384
245,89	8,299
246,11	15,286
246,32	8,323
246,54	7,740
246,75	12,545
246,97	2,315
247,18	11,894
247,39	2,375
247,61	5,712
247,82	2,325
248,04	9,063
248,25	7,982
248,47	10,691
248,68	8,440
248,90	3,303
249,11	5,258
249,33	12,951
249,54	3,884
249,75	15,555
249,97	6,776
250,18	9,535
250,40	13,904
250,61	-6,020
250,83	3,259
251,04	0,092
251,25	9,520
251,47	2,595
251,68	8,207
251,90	8,858
252,11	11,000
252,33	3,256
252,54	3,631
252,76	4,267
252,97	3,266
253,18	0,417
253,40	-0,557
253,61	0,693
253,83	8,984
254,04	6,034
254,25	3,781
254,47	1,303
254,68	3,468
254,90	4,021
255,11	4,641
255,33	4,913
255,54	4,908
255,75	3,248
255,97	4,942
256,18	2,404
256,40	9,185
256,61	4,575
256,82	1,814
257,04	10,774
257,25	2,141
257,47	4,428
257,68	1,497
257,89	7,147
258,11	8,314
258,32	7,007
258,54	4,633
258,75	11,483
258,96	9,819
259,18	4,513
259,39	1,099
259,61	5,453
259,82	2,985
260,03	4,621
260,25	3,545
260,46	2,442
260,68	2,277
260,89	3,944
261,10	2,332
261,32	5,064
261,53	0,335
261,75	5,937
261,96	-1,971
262,17	7,324
262,39	7,067
262,60	0,227
262,81	2,059
263,03	4,763
263,24	4,843
263,46	-1,288
263,67	1,055
263,88	5,378
264,10	7,797
264,31	1,932
264,52	5,851
264,74	6,399
264,95	0,667
265,17	6,306
265,38	1,614
265,59	7,116
265,81	4,120
266,02	0,223
266,23	2,785
266,45	7,036
266,66	5,843
266,87	5,713
267,09	1,177
267,30	7,107
267,52	7,594
267,73	1,799
267,94	4,669
268,16	4,574
268,37	6,212
268,58	2,397
268,80	1,969
269,01	2,088
269,22	8,947
269,44	3,403
269,65	4,927
269,86	3,064
270,08	8,436
270,29	2,066
270,50	5,390
270,72	7,285
270,93	2,480
271,14	1,081
271,36	6,955
271,57	4,585
271,78	3,832
272,00	3,993
272,21	5,947
272,42	5,396
272,64	4,506
272,85	2,954
273,06	1,194
273,28	2,865
273,49	7,162
273,70	7,862
273,92	7,402
274,13	6,427
274,34	6,128
274,56	5,642
274,77	2,976
274,98	4,022
275,20	3,230
275,41	7,964
275,62	6,903
275,84	5,109
276,05	7,591
276,26	2,454
276,47	1,824
276,69	6,827
276,90	4,262
277,11	4,055
277,33	3,593
277,54	5,102
277,75	6,376
277,97	2,113
278,18	7,086
278,39	7,154
278,61	1,871
278,82	4,862
279,03	0,631
279,24	3,735
279,46	4,807
279,67	3,956
279,88	3,990
280,10	6,858
280,31	0,116
280,52	7,320
280,73	-0,969
280,95	5,751
281,16	7,420
281,37	4,840
281,59	6,257
281,80	10,483
282,01	3,302
282,22	2,698
282,44	-0,013
282,65	8,218
282,86	8,000
283,08	3,243
283,29	5,352
283,50	4,391
283,71	3,472
283,93	4,242
284,14	8,370
284,35	3,391
284,56	5,151
284,78	3,199
284,99	4,333
285,20	4,964
285,42	5,062
285,63	1,815
285,84	3,003
286,05	1,600
286,27	3,794
286,48	2,219
286,69	3,437
286,90	2,661
287,12	2,311
287,33	2,252
287,54	1,405
287,75	4,415
287,97	4,564
288,18	4,415
288,39	2,969
288,60	6,516
288,82	6,163
289,03	-0,927
289,24	6,523
289,45	5,727
289,67	4,730
289,88	2,488
290,09	5,204
290,30	7,708
290,52	2,806
290,73	2,169
290,94	2,957
291,15	4,298
291,37	3,757
291,58	2,698
291,79	2,578
292,00	6,491
292,21	5,097
292,43	-0,443
292,64	3,232
292,85	0,578
293,06	6,125
293,28	3,827
293,49	0,992
293,70	5,196
293,91	4,254
294,12	4,044
294,34	2,027
294,55	1,688
294,76	3,622
294,97	7,966
295,19	0,445
295,40	5,288
295,61	5,764
295,82	0,711
296,03	2,107
296,25	3,027
296,46	-0,189
296,67	1,325
296,88	1,078
297,09	5,641
297,31	4,028
297,52	3,827
297,73	2,101
297,94	5,756
298,15	4,339
298,37	4,114
298,58	4,922
298,79	6,650
299,00	-0,414
299,21	2,209
299,43	2,665
299,64	6,795
299,85	6,187
300,06	2,773
300,27	2,262
300,49	8,846
300,70	4,054
300,91	4,598
301,12	4,166
301,33	8,220
301,54	2,819
301,76	5,726
301,97	1,957
302,18	1,507
302,39	5,888
302,60	4,251
302,82	4,902
303,03	6,663
303,24	5,463
303,45	5,014
303,66	6,525
303,87	2,792
304,09	6,137
304,30	2,469
304,51	2,895
304,72	5,384
304,93	5,768
305,14	2,755
305,36	1,795
305,57	3,193
305,78	4,312
305,99	2,223
306,20	3,405
306,41	1,699
306,62	3,124
306,84	3,199
307,05	2,829
307,26	4,133
307,47	6,030
307,68	5,189
307,89	2,969
308,11	3,894
308,32	1,641
308,53	3,367
308,74	0,679
308,95	4,521
309,16	2,628
309,37	6,215
309,59	3,313
309,80	4,072
310,01	3,922
310,22	6,648
310,43	2,512
310,64	5,982
310,85	5,903
311,06	3,848
311,28	4,635
311,49	2,847
311,70	6,156
311,91	2,395
312,12	2,691
312,33	4,388
312,54	4,548
312,75	2,162
312,97	2,488
313,18	4,953
313,39	3,934
313,60	4,380
313,81	4,934
314,02	4,831
314,23	1,581
314,44	2,303
314,65	4,800
314,87	2,598
315,08	5,224
315,29	6,144
315,50	4,440
315,71	6,107
315,92	4,468
316,13	5,641
316,34	5,664
316,55	6,222
316,77	2,689
316,98	3,792
317,19	2,213
317,40	4,591
317,61	5,735
317,82	2,411
318,03	2,207
318,24	3,822
318,45	5,969
318,66	3,489
318,87	0,821
319,09	5,061
319,30	2,446
319,51	4,537
319,72	6,404
319,93	4,977
320,14	6,151
320,35	5,065
320,56	1,926
320,77	0,476
320,98	10,191
321,19	3,927
321,40	3,845
321,62	4,085
321,83	6,390
322,04	5,152
322,25	2,244
322,46	7,091
322,67	6,108
322,88	4,730
323,09	2,053
323,30	5,237
323,51	3,730
323,72	5,157
323,93	1,214
324,14	0,894
324,35	0,398
324,56	1,329
324,77	2,559
324,99	3,762
325,20	-0,289
325,41	4,072
325,62	4,539
325,83	3,242
326,04	4,009
326,25	5,614
326,46	3,374
326,67	3,366
326,88	4,927
327,09	2,793
327,30	3,292
327,51	3,993
327,72	1,643
327,93	5,613
328,14	1,507
328,35	1,602
328,56	5,318
328,77	4,344
328,98	5,666
329,19	4,133
329,40	4,914
329,61	4,628
329,82	2,106
330,04	4,206
330,25	1,960
330,46	3,930
330,67	1,852
330,88	2,311
331,09	3,219
331,30	5,400
331,51	3,721
331,72	5,285
331,93	3,314
332,14	2,612
332,35	7,263
332,56	5,392
332,77	6,511
332,98	1,119
333,19	3,485
333,40	3,532
333,61	3,252
333,82	5,916
334,03	4,072
334,24	5,042
334,45	5,083
334,66	9,410
334,87	3,754
335,08	-0,408
335,29	1,659
335,50	2,104
335,71	2,611
335,92	4,963
336,13	6,405
336,34	0,741
336,55	4,602
336,76	7,816
336,97	3,140
337,18	0,701
337,39	3,255
337,60	4,795
337,81	4,013
338,02	2,398
338,23	4,618
338,44	4,349
338,65	4,256
338,86	5,484
339,07	0,974
339,28	3,709
339,49	3,903
339,70	0,660
339,91	3,128
340,11	5,576
340,32	1,481
340,53	0,980
340,74	1,647
340,95	3,240
341,16	4,571
341,37	6,319
341,58	0,874
341,79	3,999
342,00	3,681
342,21	6,389
342,42	3,826
342,63	4,730
342,84	-1,002
343,05	3,487
343,26	6,313
343,47	7,075
343,68	1,624
343,89	3,223
344,10	5,969
344,31	6,802
344,52	3,721
344,73	2,954
344,94	4,233
345,14	4,510
345,35	6,590
345,56	4,298
345,77	2,233
345,98	3,802
346,19	5,913
346,40	1,163
346,61	3,388
346,82	4,691
347,03	2,297
347,24	4,980
347,45	3,265
347,66	7,566
347,87	1,877
348,08	5,649
348,28	2,469
348,49	5,332
348,70	6,346
348,91	4,538
349,12	0,388
349,33	17,014
349,54	5,784
349,75	6,745
349,96	4,194
350,17	4,848
350,38	1,420
350,59	6,477
350,80	6,022
351,00	5,634
351,21	5,871
351,42	5,074
351,63	2,862
351,84	2,712
352,05	4,673
352,26	3,435
352,47	3,463
352,68	6,198
352,89	5,138
353,09	4,995
353,30	0,921
353,51	5,710
353,72	4,949
353,93	6,856
354,14	0,203
354,35	5,036
354,56	5,707
354,77	6,210
354,98	-0,222
355,18	2,427
355,39	5,968
355,60	3,770
355,81	6,002
356,02	4,500
356,23	3,030
356,44	3,226
356,65	4,444
356,85	9,959
357,06	3,829
357,27	6,609
357,48	3,886
357,69	2,552
357,90	3,841
358,11	4,573
358,32	3,806
358,52	5,154
358,73	1,879
358,94	1,843
359,15	7,870
359,36	5,249
359,57	4,812
359,78	3,853
359,98	3,020
360,19	0,379
360,40	6,128
360,61	5,852
360,82	3,078
361,03	7,289
361,24	7,294
361,44	1,712
361,65	4,196
361,86	2,229
362,07	4,599
362,28	1,357
362,49	2,513
362,70	3,631
362,90	5,183
363,11	1,590
363,32	1,220
363,53	4,915
363,74	4,286
363,95	5,067
364,15	4,584
364,36	6,271
364,57	5,041
364,78	5,723
364,99	5,203
365,20	5,914
365,40	5,384
365,61	2,562
365,82	7,199
366,03	5,819
366,24	5,309
366,45	2,483
366,65	4,165
366,86	1,754
367,07	5,105
367,28	2,490
367,49	6,283
367,69	7,610
367,90	2,554
368,11	4,973
368,32	2,221
368,53	4,219
368,73	7,611
368,94	3,048
369,15	5,780
369,36	6,275
369,57	4,989
369,78	0,081
369,98	4,478
370,19	7,020
370,40	4,983
370,61	3,934
370,82	5,155
371,02	6,513
371,23	7,923
371,44	4,817
371,65	2,141
371,85	7,749
372,06	1,706
372,27	1,865
372,48	2,758
372,69	3,178
372,89	0,638
373,10	-0,336
373,31	1,831
373,52	5,724
373,73	9,247
373,93	7,776
374,14	2,931
374,35	7,405
374,56	8,780
374,76	4,371
374,97	2,366
375,18	2,156
375,39	4,041
375,60	4,305
375,80	2,506
376,01	4,362
376,22	5,806
376,43	4,903
376,63	4,215
376,84	3,488
377,05	3,240
377,26	2,289
377,46	1,121
377,67	5,407
377,88	6,541
378,09	1,552
378,29	1,450
378,50	7,550
378,71	7,297
378,92	3,096
379,12	2,855
379,33	5,360
379,54	3,817
379,75	5,477
379,95	3,001
380,16	5,407
380,37	6,428
380,58	3,109
380,78	6,621
380,99	5,097
381,20	2,596
381,41	4,280
381,61	7,585
381,82	3,517
382,03	4,008
382,24	6,555
382,44	2,996
382,65	6,481
382,86	2,539
383,06	3,765
383,27	2,776
383,48	0,958
383,69	3,913
383,89	1,197
384,10	4,635
384,31	5,381
384,51	4,697
384,72	2,027
384,93	1,598
385,14	5,800
385,34	9,291
385,55	0,445
385,76	3,325
385,96	7,752
386,17	4,277
386,38	5,480
386,59	7,346
386,79	1,790
387,00	6,908
387,21	6,495
387,41	5,961
387,62	1,400
387,83	10,154
388,03	3,581
388,24	1,519
388,45	5,751
388,66	3,013
388,86	6,899
389,07	3,269
389,28	7,954
389,48	3,215
389,69	4,006
389,90	7,132
390,10	7,657
390,31	8,352
390,52	-0,976
390,72	4,489
390,93	6,085
391,14	4,140
391,34	2,838
391,55	5,658
391,76	7,326
391,96	5,875
392,17	2,257
392,38	7,054
392,58	5,625
392,79	3,142
393,00	1,054
393,20	2,410
393,41	3,079
393,62	5,850
393,82	4,998
394,03	6,695
394,24	5,773
394,44	5,897
394,65	6,496
394,86	4,402
395,06	8,434
395,27	6,653
395,48	2,684
395,68	5,257
395,89	7,258
396,10	5,219
396,30	4,832
396,51	4,627
396,72	9,015
396,92	6,397
397,13	6,578
397,34	1,086
397,54	8,631
397,75	4,783
397,95	3,833
398,16	6,837
398,37	5,440
398,57	6,143
398,78	10,432
398,99	9,074
399,19	7,788
399,40	10,265
399,60	3,654
399,81	6,264
400,02	4,804
400,22	8,624
400,43	2,576
400,64	5,479
400,84	6,608
401,05	6,469
401,25	8,744
401,46	8,871
401,67	6,498
401,87	3,372
402,08	7,473
402,29	2,949
402,49	9,304
402,70	9,649
402,90	4,818
403,11	5,994
403,32	7,902
403,52	7,766
403,73	7,205
403,93	11,395
404,14	11,763
404,35	7,811
404,55	6,390
404,76	7,834
404,96	4,706
405,17	10,898
405,38	9,436
405,58	7,702
405,79	9,023
405,99	8,700
406,20	8,573
406,40	3,438
406,61	8,700
406,82	11,242
407,02	9,428
407,23	8,758
407,43	7,578
407,64	10,731
407,85	11,470
408,05	7,748
408,26	18,297
408,46	12,788
408,67	9,329
408,87	9,751
409,08	8,052
409,29	11,538
409,49	14,327
409,70	14,403
409,90	12,038
410,11	15,770
410,31	15,890
410,52	12,334
410,72	8,549
410,93	9,503
411,14	8,222
411,34	7,013
411,55	16,421
411,75	13,850
411,96	12,477
412,16	12,565
412,37	12,819
412,57	16,205
412,78	10,405
412,99	11,871
413,19	10,271
413,40	13,763
413,60	11,015
413,81	13,768
414,01	12,521
414,22	12,937
414,42	11,405
414,63	9,875
414,83	14,839
415,04	16,274
415,24	16,326
415,45	14,438
415,65	10,844
415,86	10,909
416,07	15,222
416,27	13,220
416,48	17,376
416,68	15,877
416,89	10,543
417,09	15,336
417,30	15,603
417,50	18,394
417,71	17,358
417,91	16,103
418,12	13,108
418,32	15,668
418,53	18,892
418,73	15,648
418,94	17,533
419,14	17,991
419,35	15,250
419,55	16,855
419,76	17,391
419,96	14,193
420,17	15,273
420,37	16,009
420,58	18,758
420,78	18,611
420,99	17,567
421,19	18,609
421,40	19,702
421,60	18,475
421,81	16,972
422,01	19,224
422,22	16,115
422,42	18,106
422,63	17,016
422,83	17,525
423,04	21,366
423,24	19,232
423,45	17,196
423,65	18,993
423,86	23,457
424,06	20,112
424,27	19,896
424,47	20,120
424,67	15,164
424,88	18,507
425,08	19,400
425,29	24,333
425,49	18,127
425,70	15,114
425,90	20,233
426,11	21,420
426,31	20,130
426,52	19,521
426,72	15,950
426,93	18,277
427,13	22,193
427,33	22,438
427,54	18,979
427,74	22,232
427,95	24,736
428,15	15,781
428,36	23,920
428,56	21,754
428,77	24,904
428,97	19,250
429,18	24,487
429,38	18,058
429,58	25,870
429,79	24,586
429,99	23,181
430,20	14,765
430,40	22,750
430,61	19,935
430,81	20,735
431,01	24,222
431,22	19,684
431,42	26,437
431,63	21,070
431,83	24,552
432,04	21,894
432,24	26,180
432,44	19,251
432,65	22,186
432,85	21,342
433,06	26,661
433,26	17,694
433,47	18,832
433,67	19,305
433,87	20,268
434,08	20,773
434,28	20,654
434,49	21,451
434,69	25,362
434,89	18,726
435,10	21,820
435,30	23,965
435,51	17,366
435,71	24,079
435,91	21,368
436,12	19,590
436,32	21,900
436,53	21,595
436,73	20,213
436,93	21,820
437,14	24,469
437,34	22,859
437,55	23,379
437,75	23,854
437,95	25,068
438,16	25,663
438,36	22,899
438,57	18,718
438,77	22,612
438,97	25,476
439,18	24,540
439,38	20,744
439,58	20,487
439,79	24,685
439,99	19,965
440,20	29,463
440,40	22,540
440,60	24,773
440,81	26,190
441,01	21,149
441,21	25,209
441,42	24,146
441,62	23,339
441,83	24,383
442,03	28,212
442,23	23,562
442,44	23,260
442,64	23,297
442,84	18,906
443,05	26,828
443,25	22,647
443,45	26,352
443,66	23,598
443,86	21,283
444,06	20,644
444,27	23,107
444,47	23,129
444,67	20,401
444,88	27,130
445,08	21,048
445,28	24,671
445,49	20,285
445,69	21,243
445,90	27,152
446,10	25,505
446,30	26,847
446,51	22,825
446,71	26,645
446,91	29,473
447,12	27,768
447,32	23,634
447,52	25,149
447,72	21,817
447,93	24,528
448,13	23,297
448,33	29,245
448,54	28,468
448,74	22,277
448,94	26,445
449,15	24,778
449,35	24,304
449,55	24,071
449,76	26,079
449,96	23,533
450,16	29,026
450,37	22,361
450,57	25,330
450,77	23,227
450,98	30,693
451,18	23,858
451,38	26,538
451,58	27,320
451,79	23,881
451,99	27,778
452,19	24,585
452,40	24,513
452,60	20,963
452,80	22,796
453,00	25,439
453,21	27,012
453,41	24,421
453,61	23,210
453,82	28,050
454,02	20,833
454,22	26,624
454,42	27,616
454,63	25,266
454,83	21,883
