Fichero De Datos De SpectraSuite
++++++++++++++++++++++++++++++++++++
Fecha: Wed Apr 22 11:09:23 CEST 2009
Usuario: evoflor
Presente Oscuro Del Espectro: Sí
La Referencia de Presente Del Espectro De: Sí
Muestreados de los componentes de Número de espectros: 1
Espectrómetros: USB4F02353
Tiempo de integración (usec): 500000 (USB4F02353)
Promedio de Espectros Hechos un: 5 (USB4F02353)
El Alisar Del Furgón: 0 (USB4F02353)
Párrafo de de Corregir del la del del de Eléctrica del obscuridad: Sí (USB4F02353)
Estrobo/Lámpara Permitido: No (USB4F02353)
Correct for Detector Non-linearity: No (USB4F02353)
Párrafo de de Corregir del la del del de Externa del luz: No (USB4F02353)
Procesado del espectro de Número de pixeles en: 3648
>>>>> Comienza Data<<<<< Espectral Procesado Del EL
177,79	211,962
178,00	211,962
178,22	211,962
178,44	1029,011
178,66	-76,499
178,88	272,769
179,09	-248,766
179,31	281,670
179,53	562,724
179,75	216,747
179,96	760,000
180,18	52,738
180,40	458,471
180,62	307,851
180,83	-111,736
181,05	-1151,951
181,27	-42260,000
181,49	-123,174
181,70	359,846
181,92	538,883
182,14	230,301
182,36	43,098
182,58	63,400
182,79	743,125
183,01	-97,556
183,23	37,329
183,45	-429,108
183,66	-75,487
183,88	-5,529
184,10	-932,000
184,32	218,218
184,53	106,590
184,75	-62,719
184,97	87,158
185,18	-82,820
185,40	-129,615
185,62	59,653
185,84	115,852
186,05	94,372
186,27	-76,523
186,49	4221,538
186,71	92,941
186,92	114,220
187,14	-115,360
187,36	99,259
187,58	84,663
187,79	19,210
188,01	187,728
188,23	-278,580
188,45	70,965
188,66	273,036
188,88	-1979,273
189,10	-1592,600
189,31	215,085
189,53	-82,190
189,75	181,955
189,97	238,692
190,18	-34,936
190,40	68,588
190,62	-36,171
190,83	-164,514
191,05	120,127
191,27	318,743
191,49	236,040
191,70	-454,135
191,92	-220,847
192,14	-29,538
192,35	477,347
192,57	4267,429
192,79	-2,013
193,01	110,087
193,22	184,213
193,44	-179,625
193,66	80,951
193,87	-0,086
194,09	-4,853
194,31	162,911
194,53	484,336
194,74	66,710
194,96	81,662
195,18	53,906
195,39	-220,739
195,61	-11,523
195,83	-244,478
196,04	109,028
196,26	-221,407
196,48	59,526
196,70	189,583
196,91	93,321
197,13	341,671
197,35	-171,568
197,56	504,211
197,78	919,851
198,00	566,154
198,21	-30,777
198,43	-727,093
198,65	140,967
198,86	71,079
199,08	191,672
199,30	112,874
199,51	-348,730
199,73	213,067
199,95	322,921
200,16	477,538
200,38	166,406
200,60	121,912
200,81	267,794
201,03	129,511
201,25	-530,600
201,46	186,985
201,68	63,582
201,90	2187,727
202,11	-233,435
202,33	159,892
202,55	-653,000
202,76	56,682
202,98	-12,683
203,20	342,019
203,41	-416,632
203,63	91,317
203,85	-83660,000
204,06	95,963
204,28	-8,578
204,50	120,254
204,71	284,558
204,93	222,880
205,15	92,048
205,36	-128,987
205,58	302,226
205,80	-135,170
206,01	-6,146
206,23	132,883
206,45	181,170
206,66	125,255
206,88	74,185
207,10	196,273
207,31	305,113
207,53	221,029
207,75	118,373
207,96	496,716
208,18	-130,478
208,39	-29,977
208,61	1078,857
208,83	-234,845
209,04	138,672
209,26	249,032
209,48	218,211
209,69	274,290
209,91	279,595
210,13	21,319
210,34	169,879
210,56	129,307
210,77	-1480,787
210,99	36,604
211,21	4868,235
211,42	-3,883
211,64	94,607
211,86	194,370
212,07	223,642
212,29	208,419
212,50	87,469
212,72	86,385
212,94	144,974
213,15	159,087
213,37	169,162
213,58	-57,783
213,80	1994,286
214,02	3227,059
214,23	241,350
214,45	262,492
214,67	-1821,463
214,88	-114,631
215,10	-53,803
215,31	137,467
215,53	-298,727
215,75	101,670
215,96	1140,124
216,18	-583,662
216,39	101,335
216,61	296,638
216,83	84,196
217,04	1779,326
217,26	-91,516
217,47	87,808
217,69	235,217
217,91	-23,093
218,12	-17960,000
218,34	17,500
218,55	174,164
218,77	47,672
218,99	99,158
219,20	-2,353
219,42	187,896
219,63	-40,213
219,85	-64,854
220,06	-86,692
220,28	200,999
220,50	50,013
220,71	67,607
220,93	338,868
221,14	-1691,600
221,36	20,727
221,58	142,436
221,79	65,278
222,01	317,759
222,22	994,474
222,44	-951,011
222,65	79,654
222,87	245,175
223,09	110,608
223,30	58,610
223,52	143,961
223,73	122,062
223,95	13,887
224,16	14,763
224,38	132,133
224,60	50,358
224,81	177,401
225,03	145,661
225,24	77,687
225,46	-47,907
225,67	64,355
225,89	104,791
226,10	279,096
226,32	546,880
226,54	-19,166
226,75	-0,046
226,97	86,657
227,18	138,431
227,40	19,985
227,61	5,504
227,83	13,278
228,04	112,000
228,26	47,894
228,47	25,957
228,69	215,429
228,91	161,728
229,12	90,359
229,34	22,555
229,55	58,535
229,77	-0,017
229,98	-44,220
230,20	29,304
230,41	32,138
230,63	46,846
230,84	-20,748
231,06	42,973
231,27	27,201
231,49	47,549
231,71	16,131
231,92	33,590
232,14	16,163
232,35	70,998
232,57	49,831
232,78	-0,610
233,00	43,684
233,21	41,972
233,43	-17,706
233,64	24,684
233,86	36,315
234,07	3,512
234,29	31,300
234,50	21,491
234,72	30,163
234,93	7,590
235,15	30,976
235,36	25,660
235,58	23,284
235,79	39,483
236,01	25,611
236,22	18,047
236,44	22,370
236,65	9,175
236,87	9,221
237,08	13,139
237,30	-1,247
237,51	14,304
237,73	4,093
237,94	12,279
238,16	28,961
238,37	9,134
238,59	10,345
238,80	7,776
239,02	5,805
239,23	17,637
239,45	-1,349
239,66	29,701
239,88	19,603
240,09	14,256
240,31	-2,033
240,52	7,851
240,74	10,375
240,95	2,088
241,17	4,253
241,38	8,772
241,60	8,630
241,81	12,782
242,03	6,484
242,24	10,384
242,46	15,537
242,67	4,785
242,89	6,046
243,10	17,560
243,32	11,193
243,53	7,200
243,75	4,700
243,96	6,832
244,18	19,140
244,39	5,133
244,60	12,533
244,82	5,530
245,03	18,370
245,25	6,270
245,46	18,410
245,68	0,065
245,89	11,995
246,11	12,422
246,32	14,842
246,54	9,100
246,75	10,400
246,97	8,653
247,18	19,781
247,39	3,346
247,61	8,392
247,82	2,072
248,04	2,932
248,25	4,451
248,47	10,424
248,68	12,056
248,90	5,940
249,11	12,195
249,33	13,022
249,54	4,295
249,75	8,353
249,97	2,069
250,18	12,881
250,40	17,701
250,61	-0,117
250,83	2,470
251,04	-1,847
251,25	9,976
251,47	1,205
251,68	8,806
251,90	2,632
252,11	9,901
252,33	4,478
252,54	7,158
252,76	2,440
252,97	2,712
253,18	1,747
253,40	4,974
253,61	5,224
253,83	7,887
254,04	9,574
254,25	5,200
254,47	4,372
254,68	8,957
254,90	3,238
255,11	8,887
255,33	7,670
255,54	-0,565
255,75	2,235
255,97	5,268
256,18	2,772
256,40	2,943
256,61	3,947
256,82	1,969
257,04	8,812
257,25	-0,989
257,47	4,319
257,68	1,554
257,89	7,206
258,11	9,019
258,32	6,771
258,54	5,864
258,75	12,720
258,96	7,447
259,18	1,988
259,39	5,153
259,61	7,723
259,82	5,378
260,03	7,331
260,25	6,069
260,46	7,096
260,68	4,252
260,89	9,199
261,10	6,233
261,32	3,990
261,53	8,625
261,75	9,987
261,96	1,370
262,17	7,455
262,39	10,625
262,60	3,660
262,81	-0,002
263,03	8,641
263,24	4,283
263,46	5,164
263,67	4,130
263,88	7,927
264,10	5,004
264,31	0,828
264,52	9,953
264,74	6,108
264,95	5,461
265,17	5,886
265,38	4,094
265,59	9,009
265,81	6,986
266,02	3,105
266,23	3,873
266,45	11,136
266,66	10,356
266,87	7,205
267,09	0,953
267,30	5,368
267,52	6,293
267,73	7,333
267,94	5,538
268,16	6,976
268,37	6,079
268,58	6,418
268,80	1,824
269,01	7,114
269,22	7,168
269,44	4,435
269,65	6,704
269,86	2,128
270,08	8,844
270,29	3,973
270,50	2,936
270,72	10,502
270,93	4,800
271,14	2,738
271,36	2,603
271,57	6,258
271,78	3,959
272,00	9,892
272,21	4,942
272,42	5,009
272,64	5,496
272,85	1,721
273,06	5,821
273,28	4,647
273,49	5,955
273,70	4,367
273,92	7,872
274,13	7,137
274,34	4,459
274,56	6,344
274,77	6,656
274,98	9,848
275,20	6,380
275,41	9,112
275,62	7,541
275,84	4,034
276,05	12,559
276,26	4,865
276,47	4,065
276,69	9,073
276,90	3,883
277,11	3,859
277,33	6,624
277,54	8,526
277,75	2,747
277,97	4,321
278,18	4,590
278,39	6,991
278,61	0,802
278,82	2,828
279,03	8,559
279,24	7,789
279,46	3,223
279,67	7,512
279,88	6,022
280,10	7,234
280,31	2,233
280,52	6,604
280,73	4,119
280,95	8,745
281,16	7,909
281,37	7,821
281,59	9,630
281,80	10,027
282,01	6,060
282,22	5,326
282,44	0,505
282,65	10,160
282,86	6,994
283,08	5,140
283,29	6,014
283,50	6,914
283,71	7,456
283,93	7,414
284,14	9,106
284,35	5,483
284,56	6,562
284,78	4,984
284,99	6,849
285,20	8,789
285,42	5,742
285,63	6,408
285,84	2,491
286,05	5,201
286,27	5,464
286,48	4,936
286,69	2,045
286,90	3,282
287,12	4,156
287,33	5,545
287,54	5,869
287,75	6,374
287,97	6,000
288,18	7,738
288,39	0,462
288,60	4,579
288,82	4,876
289,03	6,521
289,24	3,511
289,45	8,950
289,67	6,467
289,88	4,657
290,09	6,235
290,30	7,231
290,52	4,278
290,73	6,594
290,94	2,445
291,15	4,497
291,37	8,018
291,58	3,731
291,79	3,895
292,00	6,714
292,21	5,814
292,43	2,674
292,64	4,754
292,85	4,043
293,06	5,712
293,28	3,706
293,49	3,404
293,70	6,107
293,91	2,894
294,12	7,024
294,34	2,010
294,55	3,741
294,76	6,316
294,97	8,409
295,19	1,958
295,40	6,808
295,61	7,325
295,82	3,530
296,03	3,749
296,25	6,814
296,46	2,197
296,67	2,292
296,88	3,770
297,09	7,075
297,31	2,488
297,52	8,305
297,73	2,920
297,94	7,801
298,15	4,572
298,37	4,223
298,58	8,412
298,79	8,312
299,00	4,713
299,21	4,816
299,43	3,865
299,64	8,091
299,85	5,069
300,06	5,471
300,27	4,596
300,49	6,976
300,70	6,212
300,91	5,367
301,12	4,548
301,33	6,763
301,54	3,275
301,76	5,393
301,97	7,841
302,18	4,800
302,39	7,160
302,60	6,438
302,82	4,125
303,03	8,479
303,24	4,831
303,45	4,470
303,66	4,738
303,87	5,955
304,09	6,146
304,30	5,200
304,51	3,336
304,72	3,967
304,93	7,678
305,14	5,361
305,36	1,853
305,57	2,086
305,78	6,983
305,99	3,900
306,20	5,072
306,41	4,612
306,62	4,153
306,84	3,910
307,05	1,492
307,26	4,213
307,47	8,003
307,68	3,449
307,89	2,050
308,11	5,446
308,32	3,770
308,53	5,017
308,74	1,821
308,95	4,067
309,16	6,682
309,37	6,650
309,59	2,851
309,80	5,318
310,01	8,899
310,22	6,726
310,43	6,597
310,64	5,227
310,85	5,814
311,06	3,708
311,28	3,729
311,49	5,034
311,70	7,591
311,91	3,750
312,12	3,813
312,33	4,755
312,54	8,494
312,75	4,561
312,97	4,179
313,18	5,470
313,39	3,164
313,60	5,108
313,81	4,337
314,02	6,189
314,23	4,897
314,44	3,565
314,65	5,099
314,87	0,927
315,08	4,805
315,29	8,365
315,50	6,649
315,71	6,739
315,92	6,984
316,13	6,365
316,34	2,944
316,55	4,911
316,77	1,740
316,98	3,304
317,19	3,527
317,40	6,778
317,61	7,024
317,82	4,289
318,03	2,509
318,24	4,182
318,45	7,576
318,66	5,613
318,87	3,517
319,09	5,602
319,30	7,268
319,51	5,971
319,72	6,587
319,93	5,011
320,14	6,341
320,35	6,715
320,56	3,301
320,77	1,053
320,98	7,631
321,19	6,046
321,40	5,277
321,62	8,034
321,83	7,034
322,04	7,636
322,25	3,784
322,46	7,259
322,67	4,214
322,88	5,730
323,09	5,438
323,30	8,055
323,51	6,664
323,72	6,604
323,93	3,876
324,14	4,318
324,35	3,345
324,56	1,920
324,77	3,131
324,99	4,236
325,20	2,150
325,41	5,623
325,62	6,798
325,83	4,397
326,04	4,732
326,25	6,508
326,46	2,560
326,67	3,679
326,88	4,281
327,09	4,071
327,30	5,000
327,51	4,441
327,72	7,402
327,93	6,085
328,14	2,520
328,35	4,257
328,56	7,603
328,77	5,410
328,98	8,742
329,19	6,384
329,40	6,231
329,61	5,192
329,82	-0,079
330,04	7,458
330,25	1,576
330,46	4,091
330,67	4,190
330,88	2,634
331,09	5,321
331,30	4,243
331,51	4,763
331,72	4,670
331,93	6,648
332,14	2,082
332,35	8,570
332,56	2,927
332,77	6,205
332,98	3,887
333,19	6,096
333,40	5,552
333,61	6,129
333,82	6,260
334,03	5,096
334,24	7,565
334,45	4,664
334,66	7,168
334,87	4,612
335,08	3,894
335,29	5,035
335,50	4,229
335,71	3,775
335,92	7,645
336,13	8,378
336,34	-0,646
336,55	5,725
336,76	9,657
336,97	5,364
337,18	2,583
337,39	5,276
337,60	4,092
337,81	4,464
338,02	4,161
338,23	3,708
338,44	6,118
338,65	4,634
338,86	5,467
339,07	4,790
339,28	5,342
339,49	4,835
339,70	1,342
339,91	4,642
340,11	7,063
340,32	1,926
340,53	2,410
340,74	2,084
340,95	1,584
341,16	4,285
341,37	2,064
341,58	4,234
341,79	4,476
342,00	7,301
342,21	4,484
342,42	4,407
342,63	2,914
342,84	4,075
343,05	5,747
343,26	7,443
343,47	4,940
343,68	4,483
343,89	2,137
344,10	6,569
344,31	4,349
344,52	4,762
344,73	4,794
344,94	5,769
345,14	5,596
345,35	9,251
345,56	5,082
345,77	4,600
345,98	4,251
346,19	4,328
346,40	4,038
346,61	3,120
346,82	3,378
347,03	4,025
347,24	7,290
347,45	5,516
347,66	9,375
347,87	2,614
348,08	5,094
348,28	1,225
348,49	5,653
348,70	8,263
348,91	3,804
349,12	2,109
349,33	17,607
349,54	4,660
349,75	5,753
349,96	6,034
350,17	4,659
350,38	1,197
350,59	3,765
350,80	3,577
351,00	6,566
351,21	8,696
351,42	4,772
351,63	0,759
351,84	6,357
352,05	5,712
352,26	4,874
352,47	4,174
352,68	5,211
352,89	7,215
353,09	6,142
353,30	3,760
353,51	4,403
353,72	7,859
353,93	6,253
354,14	3,327
354,35	4,716
354,56	5,280
354,77	3,801
354,98	1,404
355,18	5,288
355,39	8,047
355,60	2,886
355,81	4,927
356,02	4,722
356,23	4,373
356,44	4,167
356,65	4,694
356,85	9,531
357,06	5,806
357,27	6,734
357,48	3,537
357,69	8,222
357,90	6,947
358,11	3,104
358,32	4,712
358,52	6,397
358,73	5,257
358,94	2,901
359,15	7,159
359,36	7,847
359,57	6,916
359,78	4,777
359,98	2,881
360,19	2,408
360,40	3,994
360,61	7,242
360,82	2,355
361,03	7,862
361,24	6,535
361,44	4,476
361,65	7,931
361,86	4,481
362,07	5,440
362,28	5,774
362,49	3,406
362,70	5,568
362,90	7,067
363,11	3,826
363,32	1,755
363,53	4,808
363,74	5,788
363,95	6,414
364,15	7,630
364,36	7,129
364,57	4,097
364,78	4,100
364,99	5,331
365,20	8,029
365,40	8,567
365,61	1,676
365,82	6,913
366,03	8,174
366,24	6,795
366,45	4,496
366,65	5,646
366,86	6,609
367,07	7,494
367,28	5,423
367,49	6,442
367,69	7,062
367,90	4,398
368,11	7,303
368,32	4,247
368,53	8,668
368,73	7,621
368,94	3,779
369,15	3,352
369,36	7,244
369,57	7,660
369,78	4,744
369,98	6,177
370,19	8,848
370,40	3,676
370,61	5,095
370,82	6,595
371,02	8,918
371,23	9,556
371,44	7,101
371,65	5,743
371,85	11,207
372,06	7,936
372,27	5,479
372,48	5,448
372,69	5,785
372,89	3,615
373,10	6,545
373,31	7,248
373,52	7,910
373,73	9,073
373,93	8,307
374,14	5,824
374,35	5,524
374,56	10,039
374,76	5,253
374,97	6,227
375,18	7,950
375,39	5,970
375,60	7,446
375,80	4,601
376,01	6,314
376,22	5,415
376,43	6,820
376,63	7,146
376,84	5,282
377,05	10,107
377,26	3,548
377,46	5,542
377,67	7,632
377,88	12,312
378,09	8,066
378,29	4,649
378,50	8,481
378,71	8,522
378,92	8,629
379,12	7,405
379,33	7,300
379,54	8,778
379,75	7,527
379,95	6,864
380,16	10,807
380,37	9,532
380,58	7,773
380,78	10,338
380,99	7,076
381,20	10,759
381,41	10,015
381,61	9,604
381,82	6,931
382,03	6,962
382,24	8,362
382,44	8,805
382,65	9,187
382,86	9,246
383,06	6,926
383,27	9,681
383,48	8,095
383,69	10,603
383,89	10,325
384,10	10,902
384,31	10,887
384,51	9,189
384,72	9,371
384,93	11,179
385,14	10,100
385,34	10,329
385,55	9,197
385,76	8,346
385,96	14,329
386,17	9,669
386,38	11,146
386,59	11,266
386,79	10,133
387,00	13,156
387,21	12,983
387,41	8,544
387,62	13,896
387,83	14,227
388,03	13,790
388,24	8,027
388,45	10,934
388,66	11,902
388,86	12,482
389,07	12,046
389,28	17,670
389,48	12,108
389,69	11,535
389,90	12,159
390,10	15,021
390,31	16,005
390,52	6,836
390,72	11,842
390,93	14,053
391,14	12,264
391,34	14,253
391,55	13,293
391,76	17,006
391,96	12,235
392,17	10,581
392,38	13,096
392,58	15,173
392,79	15,228
393,00	10,480
393,20	11,469
393,41	12,532
393,62	11,332
393,82	15,963
394,03	14,785
394,24	14,350
394,44	17,697
394,65	18,507
394,86	15,661
395,06	17,901
395,27	13,029
395,48	14,434
395,68	16,644
395,89	13,806
396,10	16,639
396,30	16,275
396,51	12,676
396,72	20,597
396,92	13,292
397,13	15,356
397,34	15,222
397,54	19,777
397,75	14,354
397,95	14,993
398,16	15,993
398,37	16,483
398,57	16,338
398,78	17,555
398,99	18,108
399,19	19,829
399,40	17,399
399,60	13,904
399,81	18,696
400,02	22,270
400,22	18,265
400,43	20,683
400,64	17,742
400,84	16,682
401,05	16,206
401,25	22,100
401,46	20,176
401,67	20,099
401,87	18,287
402,08	14,275
402,29	17,642
402,49	20,695
402,70	20,528
402,90	16,746
403,11	19,095
403,32	22,678
403,52	20,238
403,73	21,423
403,93	22,752
404,14	22,808
404,35	20,567
404,55	18,102
404,76	20,493
404,96	21,307
405,17	22,411
405,38	25,809
405,58	19,936
405,79	23,421
405,99	23,558
406,20	21,963
406,40	20,609
406,61	22,337
406,82	21,205
407,02	24,440
407,23	23,438
407,43	22,179
407,64	20,585
407,85	21,906
408,05	18,264
408,26	30,482
408,46	23,836
408,67	21,450
408,87	21,097
409,08	22,261
409,29	25,705
409,49	24,064
409,70	22,605
409,90	24,172
410,11	23,604
410,31	26,144
410,52	25,322
410,72	21,371
410,93	25,758
411,14	22,594
411,34	21,548
411,55	27,084
411,75	24,471
411,96	24,446
412,16	24,076
412,37	23,071
412,57	25,512
412,78	22,280
412,99	24,732
413,19	24,433
413,40	24,424
413,60	23,777
413,81	22,574
414,01	23,661
414,22	25,100
414,42	23,470
414,63	22,687
414,83	28,616
415,04	27,927
415,24	25,508
415,45	24,707
415,65	27,989
415,86	32,149
416,07	23,354
416,27	27,266
416,48	24,786
416,68	29,348
416,89	22,947
417,09	24,916
417,30	28,658
417,50	26,109
417,71	28,503
417,91	25,750
418,12	26,579
418,32	28,866
418,53	27,031
418,73	23,877
418,94	23,732
419,14	27,781
419,35	20,485
419,55	26,018
419,76	25,451
419,96	25,254
420,17	25,327
420,37	23,856
420,58	28,542
420,78	27,828
420,99	29,512
421,19	25,341
421,40	26,817
421,60	32,230
421,81	25,075
422,01	26,460
422,22	28,279
422,42	28,710
422,63	26,746
422,83	26,743
423,04	31,000
423,24	32,264
423,45	25,362
423,65	28,837
423,86	31,055
424,06	26,065
424,27	23,489
424,47	25,316
424,67	27,871
424,88	27,401
425,08	25,802
425,29	34,939
425,49	27,211
425,70	24,391
425,90	28,207
426,11	26,783
426,31	27,099
426,52	26,225
426,72	28,824
426,93	27,709
427,13	30,923
427,33	27,513
427,54	26,302
427,74	26,891
427,95	34,060
428,15	22,401
428,36	29,445
428,56	27,675
428,77	28,926
428,97	27,712
429,18	30,634
429,38	23,831
429,58	33,356
429,79	29,000
429,99	27,341
430,20	21,477
430,40	30,785
430,61	28,633
430,81	26,047
431,01	28,944
431,22	29,529
431,42	29,478
431,63	22,922
431,83	27,418
432,04	28,586
432,24	29,775
432,44	26,652
432,65	24,696
432,85	26,839
433,06	27,101
433,26	24,951
433,47	26,417
433,67	27,205
433,87	24,820
434,08	25,171
434,28	27,575
434,49	23,904
434,69	30,546
434,89	24,378
435,10	26,993
435,30	28,942
435,51	25,281
435,71	25,603
435,91	26,029
436,12	27,879
436,32	27,430
436,53	27,332
436,73	29,063
436,93	33,024
437,14	28,857
437,34	24,739
437,55	29,411
437,75	25,521
437,95	32,824
438,16	29,594
438,36	29,620
438,57	28,207
438,77	24,755
438,97	33,406
439,18	30,656
439,38	27,453
439,58	28,539
439,79	30,069
439,99	29,098
440,20	29,842
440,40	28,119
440,60	32,208
440,81	26,497
441,01	27,699
441,21	31,502
441,42	28,999
441,62	29,089
441,83	29,982
442,03	30,831
442,23	31,398
442,44	27,312
442,64	31,828
442,84	25,400
443,05	27,053
443,25	26,054
443,45	28,101
443,66	29,584
443,86	28,504
444,06	26,508
444,27	28,936
444,47	27,246
444,67	29,451
444,88	31,377
445,08	30,708
445,28	29,312
445,49	29,271
445,69	28,237
445,90	29,808
446,10	32,399
446,30	29,305
446,51	29,277
446,71	36,443
446,91	33,454
447,12	32,756
447,32	28,622
447,52	30,029
447,72	31,616
447,93	30,937
448,13	27,348
448,33	37,598
448,54	31,540
448,74	26,023
448,94	30,970
449,15	37,658
449,35	26,620
449,55	28,640
449,76	33,739
449,96	31,078
450,16	34,658
450,37	30,455
450,57	28,095
450,77	25,148
450,98	31,668
451,18	31,917
451,38	28,838
451,58	32,906
451,79	31,138
451,99	32,147
452,19	30,511
452,40	31,513
452,60	27,917
452,80	27,245
453,00	34,017
