Fichero De Datos De SpectraSuite
++++++++++++++++++++++++++++++++++++
Fecha: Wed Apr 22 11:06:03 CEST 2009
Usuario: evoflor
Presente Oscuro Del Espectro: Sí
La Referencia de Presente Del Espectro De: Sí
Muestreados de los componentes de Número de espectros: 1
Espectrómetros: USB4F02353
Tiempo de integración (usec): 500000 (USB4F02353)
Promedio de Espectros Hechos un: 5 (USB4F02353)
El Alisar Del Furgón: 0 (USB4F02353)
Párrafo de de Corregir del la del del de Eléctrica del obscuridad: Sí (USB4F02353)
Estrobo/Lámpara Permitido: No (USB4F02353)
Correct for Detector Non-linearity: No (USB4F02353)
Párrafo de de Corregir del la del del de Externa del luz: No (USB4F02353)
Procesado del espectro de Número de pixeles en: 3648
>>>>> Comienza Data<<<<< Espectral Procesado Del EL
177,79	239,587
178,00	239,587
178,22	239,587
178,44	56,648
178,66	-121,101
178,88	72,492
179,09	-77,638
179,31	149,122
179,53	429,861
179,75	220,316
179,96	762,457
180,18	21,400
180,40	198,551
180,62	282,347
180,83	86,550
181,05	-606,646
181,27	-38045,000
181,49	142,293
181,70	135,942
181,92	480,939
182,14	326,039
182,36	199,149
182,58	-254,450
182,79	475,201
183,01	-30,417
183,23	169,948
183,45	-175,215
183,66	170,155
183,88	-543,853
184,10	-1346,273
184,32	149,864
184,53	183,736
184,75	-47,129
184,97	39,747
185,18	-24,145
185,40	98,341
185,62	58,107
185,84	-21,081
186,05	133,458
186,27	-126,813
186,49	1013,269
186,71	29,006
186,92	103,682
187,14	-43,148
187,36	97,127
187,58	51,278
187,79	58,442
188,01	135,309
188,23	-18,594
188,45	57,484
188,66	210,022
188,88	-740,818
189,10	-497,450
189,31	30,299
189,53	54,644
189,75	194,875
189,97	73,635
190,18	-91,652
190,40	520,265
190,62	-129,836
190,83	-187,831
191,05	139,181
191,27	149,843
191,49	254,567
191,70	-187,236
191,92	348,771
192,14	-16,203
192,35	575,981
192,57	-301,571
192,79	-22,602
193,01	120,451
193,22	28,588
193,44	-44,957
193,66	105,519
193,87	21,724
194,09	39,886
194,31	229,284
194,53	335,280
194,74	74,427
194,96	83,178
195,18	88,552
195,39	-185,871
195,61	-54,720
195,83	-221,620
196,04	98,432
196,26	-281,633
196,48	58,049
196,70	138,260
196,91	92,160
197,13	164,671
197,35	176,467
197,56	602,616
197,78	1183,918
198,00	1,713
198,21	407,500
198,43	-655,494
198,65	83,796
198,86	279,299
199,08	289,984
199,30	166,285
199,51	-144,446
199,73	209,622
199,95	207,785
200,16	565,173
200,38	291,346
200,60	105,628
200,81	316,585
201,03	83,818
201,25	-902,450
201,46	208,337
201,68	36,706
201,90	1866,932
202,11	-365,057
202,33	205,646
202,55	1038,062
202,76	3,839
202,98	-155,941
203,20	258,438
203,41	-830,237
203,63	125,643
203,85	-60545,000
204,06	63,213
204,28	64,470
204,50	121,410
204,71	167,394
204,93	-329,240
205,15	-7,395
205,36	-174,273
205,58	218,129
205,80	-93,819
206,01	63,621
206,23	129,133
206,45	190,935
206,66	78,044
206,88	-42,765
207,10	151,920
207,31	317,411
207,53	49,557
207,75	-29,850
207,96	1089,888
208,18	-256,903
208,39	81,818
208,61	2732,714
208,83	-241,183
209,04	-11,039
209,26	-262,419
209,48	324,344
209,69	6,202
209,91	605,895
210,13	30,871
210,34	70,327
210,56	81,048
210,77	-434,213
210,99	58,337
211,21	7690,882
211,42	-73,934
211,64	83,711
211,86	188,944
212,07	222,753
212,29	140,850
212,50	109,694
212,72	-40,596
212,94	166,502
213,15	127,804
213,37	70,914
213,58	-164,180
213,80	-2001,607
214,02	8908,529
214,23	268,148
214,45	458,180
214,67	798,232
214,88	-438,742
215,10	-212,755
215,31	-30,906
215,53	57,830
215,75	89,643
215,96	1499,658
216,18	-123,310
216,39	278,227
216,61	228,483
216,83	33,237
217,04	1721,854
217,26	-73,637
217,47	126,916
217,69	150,439
217,91	55,039
218,12	-57845,000
218,34	67,368
218,55	50,782
218,77	71,357
218,99	157,159
219,20	-54,472
219,42	262,416
219,63	110,778
219,85	-24,057
220,06	35,558
220,28	57,912
220,50	183,496
220,71	138,915
220,93	3417,830
221,14	-920,450
221,36	35,669
221,58	-3,718
221,79	109,552
222,01	746,940
222,22	546,349
222,44	-563,539
222,65	99,401
222,87	-218,566
223,09	140,639
223,30	74,496
223,52	104,727
223,73	57,727
223,95	-28,810
224,16	98,856
224,38	260,770
224,60	92,570
224,81	84,095
225,03	17,120
225,24	196,698
225,46	22,832
225,67	-18,705
225,89	26,237
226,10	412,786
226,32	-156,440
226,54	-15,989
226,75	1,313
226,97	110,443
227,18	111,230
227,40	65,065
227,61	20,605
227,83	-2,156
228,04	49,498
228,26	-42,800
228,47	73,190
228,69	167,890
228,91	96,768
229,12	120,907
229,34	57,725
229,55	48,964
229,77	24,924
229,98	-17,353
230,20	12,808
230,41	-33,789
230,63	48,066
230,84	19,219
231,06	24,217
231,27	9,663
231,49	39,974
231,71	-9,031
231,92	24,367
232,14	-3,167
232,35	43,000
232,57	50,287
232,78	12,324
233,00	23,573
233,21	38,680
233,43	16,288
233,64	-3,923
233,86	14,023
234,07	5,224
234,29	21,630
234,50	5,439
234,72	37,169
234,93	6,217
235,15	29,403
235,36	21,903
235,58	5,925
235,79	35,851
236,01	20,754
236,22	11,707
236,44	34,120
236,65	18,081
236,87	23,854
237,08	6,897
237,30	-1,191
237,51	33,595
237,73	-0,099
237,94	4,977
238,16	15,748
238,37	3,430
238,59	11,463
238,80	-0,220
239,02	7,083
239,23	3,197
239,45	1,743
239,66	23,874
239,88	19,419
240,09	17,119
240,31	6,433
240,52	4,241
240,74	1,651
240,95	14,779
241,17	-0,298
241,38	10,538
241,60	13,974
241,81	9,482
242,03	7,811
242,24	4,451
242,46	17,866
242,67	4,731
242,89	10,512
243,10	15,696
243,32	11,561
243,53	3,163
243,75	8,911
243,96	6,261
244,18	5,915
244,39	6,917
244,60	6,602
244,82	4,254
245,03	14,147
245,25	9,826
245,46	16,310
245,68	1,997
245,89	14,135
246,11	15,869
246,32	7,838
246,54	7,020
246,75	11,844
246,97	10,601
247,18	19,679
247,39	2,165
247,61	5,633
247,82	3,891
248,04	6,901
248,25	6,273
248,47	8,945
248,68	11,576
248,90	-1,232
249,11	10,258
249,33	14,899
249,54	5,819
249,75	8,730
249,97	5,432
250,18	13,426
250,40	14,733
250,61	0,872
250,83	7,380
251,04	-1,656
251,25	10,321
251,47	3,636
251,68	8,612
251,90	14,063
252,11	9,265
252,33	3,048
252,54	8,249
252,76	3,469
252,97	5,108
253,18	-0,473
253,40	3,623
253,61	0,536
253,83	11,707
254,04	7,510
254,25	5,892
254,47	4,067
254,68	8,353
254,90	8,534
255,11	12,491
255,33	5,127
255,54	3,157
255,75	3,368
255,97	3,910
256,18	0,805
256,40	7,790
256,61	10,012
256,82	2,442
257,04	13,211
257,25	0,013
257,47	4,209
257,68	3,712
257,89	9,999
258,11	10,576
258,32	3,774
258,54	5,835
258,75	13,449
258,96	9,065
259,18	7,717
259,39	5,081
259,61	8,613
259,82	6,434
260,03	7,581
260,25	5,070
260,46	1,993
260,68	4,599
260,89	4,971
261,10	4,384
261,32	5,898
261,53	5,358
261,75	9,400
261,96	0,760
262,17	8,943
262,39	9,279
262,60	3,795
262,81	-2,439
263,03	7,976
263,24	8,733
263,46	2,635
263,67	6,017
263,88	6,959
264,10	6,647
264,31	2,832
264,52	4,742
264,74	7,838
264,95	5,435
265,17	6,017
265,38	7,645
265,59	7,756
265,81	5,071
266,02	3,476
266,23	4,882
266,45	8,797
266,66	8,689
266,87	9,730
267,09	3,670
267,30	5,864
267,52	7,342
267,73	5,833
267,94	5,140
268,16	5,869
268,37	5,431
268,58	5,279
268,80	3,147
269,01	4,869
269,22	9,337
269,44	7,610
269,65	8,670
269,86	3,090
270,08	6,051
270,29	2,206
270,50	4,834
270,72	9,731
270,93	5,946
271,14	4,977
271,36	7,567
271,57	7,364
271,78	4,839
272,00	5,896
272,21	8,625
272,42	6,256
272,64	10,318
272,85	3,273
273,06	4,699
273,28	6,114
273,49	6,756
273,70	10,787
273,92	6,091
274,13	4,919
274,34	5,495
274,56	3,491
274,77	7,272
274,98	4,765
275,20	4,145
275,41	9,123
275,62	7,483
275,84	7,027
276,05	9,576
276,26	2,584
276,47	3,475
276,69	7,392
276,90	6,781
277,11	6,340
277,33	5,837
277,54	7,911
277,75	5,334
277,97	3,440
278,18	6,847
278,39	10,059
278,61	5,911
278,82	4,715
279,03	5,139
279,24	2,128
279,46	3,367
279,67	4,898
279,88	2,970
280,10	7,475
280,31	5,093
280,52	7,025
280,73	2,283
280,95	5,204
281,16	11,604
281,37	4,575
281,59	5,180
281,80	9,165
282,01	5,703
282,22	5,741
282,44	4,977
282,65	6,087
282,86	7,590
283,08	5,606
283,29	4,939
283,50	6,391
283,71	6,121
283,93	5,326
284,14	7,868
284,35	5,177
284,56	5,390
284,78	3,984
284,99	4,535
285,20	6,743
285,42	6,207
285,63	6,268
285,84	1,085
286,05	1,529
286,27	7,075
286,48	3,518
286,69	2,931
286,90	4,075
287,12	4,022
287,33	8,299
287,54	2,813
287,75	7,181
287,97	7,812
288,18	7,079
288,39	4,957
288,60	5,705
288,82	2,855
289,03	2,977
289,24	3,577
289,45	6,954
289,67	4,063
289,88	4,978
290,09	5,592
290,30	4,775
290,52	5,641
290,73	2,376
290,94	2,618
291,15	4,182
291,37	8,161
291,58	3,546
291,79	3,477
292,00	7,362
292,21	6,686
292,43	3,088
292,64	2,234
292,85	5,230
293,06	6,381
293,28	3,241
293,49	5,022
293,70	7,249
293,91	3,729
294,12	4,888
294,34	3,325
294,55	5,156
294,76	5,088
294,97	8,730
295,19	1,027
295,40	7,657
295,61	5,782
295,82	3,564
296,03	6,181
296,25	3,682
296,46	1,643
296,67	4,089
296,88	3,272
297,09	7,452
297,31	4,249
297,52	7,227
297,73	4,695
297,94	7,097
298,15	5,151
298,37	6,044
298,58	7,994
298,79	6,815
299,00	1,469
299,21	4,446
299,43	2,438
299,64	10,043
299,85	8,946
300,06	3,780
300,27	2,612
300,49	9,375
300,70	5,754
300,91	5,007
301,12	4,307
301,33	5,794
301,54	4,673
301,76	5,816
301,97	6,669
302,18	4,410
302,39	8,315
302,60	6,206
302,82	6,245
303,03	9,161
303,24	6,935
303,45	5,800
303,66	4,771
303,87	5,350
304,09	9,670
304,30	3,579
304,51	2,047
304,72	6,398
304,93	7,069
305,14	4,177
305,36	3,569
305,57	1,851
305,78	3,987
305,99	5,365
306,20	5,958
306,41	3,546
306,62	3,738
306,84	5,065
307,05	3,433
307,26	2,682
307,47	8,305
307,68	5,959
307,89	3,987
308,11	6,388
308,32	3,260
308,53	6,332
308,74	2,567
308,95	7,607
309,16	6,288
309,37	8,788
309,59	4,595
309,80	5,821
310,01	5,988
310,22	6,943
310,43	4,413
310,64	5,306
310,85	5,992
311,06	4,186
311,28	9,624
311,49	6,155
311,70	9,581
311,91	1,786
312,12	3,631
312,33	8,085
312,54	7,809
312,75	3,579
312,97	4,113
313,18	4,776
313,39	3,561
313,60	4,300
313,81	6,429
314,02	5,883
314,23	6,546
314,44	2,874
314,65	2,351
314,87	5,824
315,08	6,071
315,29	7,074
315,50	5,421
315,71	6,243
315,92	8,890
316,13	5,801
316,34	5,028
316,55	6,092
316,77	2,858
316,98	6,245
317,19	4,888
317,40	6,395
317,61	7,985
317,82	4,751
318,03	4,198
318,24	4,842
318,45	7,317
318,66	4,259
318,87	3,525
319,09	8,652
319,30	5,266
319,51	6,520
319,72	6,446
319,93	10,331
320,14	5,730
320,35	7,672
320,56	4,203
320,77	3,603
320,98	9,038
321,19	2,709
321,40	5,311
321,62	7,420
321,83	5,720
322,04	6,633
322,25	4,115
322,46	7,718
322,67	6,915
322,88	6,207
323,09	6,507
323,30	7,722
323,51	7,278
323,72	7,116
323,93	3,731
324,14	4,688
324,35	4,988
324,56	0,740
324,77	6,393
324,99	3,558
325,20	0,488
325,41	4,943
325,62	5,741
325,83	3,656
326,04	3,693
326,25	7,281
326,46	2,239
326,67	6,195
326,88	4,850
327,09	3,312
327,30	3,763
327,51	4,156
327,72	6,332
327,93	8,210
328,14	2,605
328,35	4,719
328,56	6,485
328,77	4,671
328,98	7,331
329,19	7,122
329,40	7,548
329,61	4,267
329,82	2,485
330,04	4,304
330,25	2,977
330,46	6,069
330,67	1,559
330,88	5,643
331,09	4,826
331,30	6,453
331,51	6,598
331,72	4,842
331,93	7,395
332,14	2,347
332,35	7,459
332,56	4,293
332,77	6,634
332,98	3,501
333,19	4,659
333,40	6,115
333,61	5,374
333,82	6,887
334,03	6,092
334,24	6,290
334,45	4,887
334,66	5,571
334,87	4,885
335,08	2,392
335,29	4,301
335,50	1,292
335,71	3,180
335,92	6,092
336,13	8,596
336,34	2,772
336,55	5,230
336,76	7,596
336,97	2,611
337,18	5,069
337,39	2,698
337,60	4,127
337,81	7,395
338,02	5,019
338,23	5,043
338,44	4,156
338,65	4,379
338,86	6,252
339,07	3,281
339,28	6,948
339,49	4,704
339,70	1,491
339,91	2,118
340,11	9,328
340,32	5,136
340,53	1,508
340,74	3,109
340,95	4,461
341,16	8,498
341,37	4,653
341,58	5,073
341,79	4,594
342,00	5,219
342,21	8,373
342,42	3,137
342,63	5,130
342,84	1,876
343,05	5,729
343,26	5,450
343,47	5,711
343,68	3,505
343,89	5,243
344,10	5,290
344,31	8,243
344,52	4,799
344,73	4,609
344,94	4,751
345,14	5,191
345,35	10,246
345,56	5,505
345,77	4,665
345,98	5,549
346,19	5,875
346,40	6,654
346,61	4,995
346,82	4,260
347,03	2,710
347,24	6,542
347,45	2,976
347,66	8,811
347,87	5,819
348,08	6,093
348,28	4,542
348,49	6,963
348,70	5,425
348,91	4,672
349,12	1,120
349,33	16,714
349,54	7,836
349,75	8,511
349,96	5,223
350,17	5,897
350,38	5,124
350,59	5,657
350,80	5,284
351,00	6,834
351,21	7,607
351,42	3,957
351,63	4,149
351,84	5,397
352,05	5,435
352,26	4,939
352,47	5,497
352,68	7,242
352,89	6,700
353,09	9,266
353,30	4,011
353,51	5,191
353,72	4,969
353,93	7,022
354,14	-0,022
354,35	4,756
354,56	7,799
354,77	5,365
354,98	2,072
355,18	3,064
355,39	10,889
355,60	3,559
355,81	6,256
356,02	6,567
356,23	6,497
356,44	4,176
356,65	8,770
356,85	10,535
357,06	6,917
357,27	6,372
357,48	3,307
357,69	6,021
357,90	6,380
358,11	2,126
358,32	2,753
358,52	5,438
358,73	6,714
358,94	3,898
359,15	5,724
359,36	7,096
359,57	4,165
359,78	4,786
359,98	7,003
360,19	5,008
360,40	5,002
360,61	6,648
360,82	5,149
361,03	9,911
361,24	7,757
361,44	4,909
361,65	5,579
361,86	5,075
362,07	5,942
362,28	6,885
362,49	2,838
362,70	4,807
362,90	7,133
363,11	2,292
363,32	3,460
363,53	4,436
363,74	6,646
363,95	8,116
364,15	5,253
364,36	8,191
364,57	7,951
364,78	3,396
364,99	5,546
365,20	7,979
365,40	8,754
365,61	3,044
365,82	7,071
366,03	4,487
366,24	4,866
366,45	4,128
366,65	5,243
366,86	7,593
367,07	7,474
367,28	3,549
367,49	6,125
367,69	10,544
367,90	5,203
368,11	5,536
368,32	5,673
368,53	5,659
368,73	8,774
368,94	3,129
369,15	5,984
369,36	8,242
369,57	6,593
369,78	3,443
369,98	9,351
370,19	9,208
370,40	4,146
370,61	7,063
370,82	3,109
371,02	6,379
371,23	8,436
371,44	5,154
371,65	3,974
371,85	9,448
372,06	4,165
372,27	4,627
372,48	5,549
372,69	5,232
372,89	5,353
373,10	7,813
373,31	5,446
373,52	6,953
373,73	7,070
373,93	6,209
374,14	2,514
374,35	5,228
374,56	9,196
374,76	4,241
374,97	4,140
375,18	8,086
375,39	5,825
375,60	6,767
375,80	5,201
376,01	7,372
376,22	8,458
376,43	7,187
376,63	5,270
376,84	5,604
377,05	5,663
377,26	4,518
377,46	2,213
377,67	6,167
377,88	8,031
378,09	5,714
378,29	3,814
378,50	7,986
378,71	8,804
378,92	3,991
379,12	6,564
379,33	1,968
379,54	7,948
379,75	8,070
379,95	3,892
380,16	9,745
380,37	11,056
380,58	6,909
380,78	5,396
380,99	5,912
381,20	6,936
381,41	8,085
381,61	6,896
381,82	8,963
382,03	5,272
382,24	6,609
382,44	4,222
382,65	4,878
382,86	5,279
383,06	6,605
383,27	5,752
383,48	4,413
383,69	8,298
383,89	7,914
384,10	8,036
384,31	7,082
384,51	8,771
384,72	7,213
384,93	4,416
385,14	6,082
385,34	10,243
385,55	5,246
385,76	6,554
385,96	10,835
386,17	8,557
386,38	10,963
386,59	8,573
386,79	5,814
387,00	10,228
387,21	9,355
387,41	10,190
387,62	8,886
387,83	10,546
388,03	6,088
388,24	6,338
388,45	10,320
388,66	7,037
388,86	6,352
389,07	2,412
389,28	11,484
389,48	10,571
389,69	8,898
389,90	9,449
390,10	11,944
390,31	13,625
390,52	5,253
390,72	5,392
390,93	9,091
391,14	8,315
391,34	8,401
391,55	11,784
391,76	13,634
391,96	8,963
392,17	9,696
392,38	12,760
392,58	9,803
392,79	10,054
393,00	6,952
393,20	9,218
393,41	13,562
393,62	10,262
393,82	11,725
394,03	8,988
394,24	10,895
394,44	10,898
394,65	13,356
394,86	8,066
395,06	12,212
395,27	11,727
395,48	13,568
395,68	11,063
395,89	11,903
396,10	11,156
396,30	11,535
396,51	9,324
396,72	15,171
396,92	11,885
397,13	12,737
397,34	10,203
397,54	16,256
397,75	12,401
397,95	12,689
398,16	13,418
398,37	14,613
398,57	11,568
398,78	17,025
398,99	15,234
399,19	18,758
399,40	17,443
399,60	11,046
399,81	12,771
400,02	16,250
400,22	15,715
400,43	12,792
400,64	14,124
400,84	15,426
401,05	15,596
401,25	19,168
401,46	16,151
401,67	18,182
401,87	16,239
402,08	14,783
402,29	14,451
402,49	19,355
402,70	23,046
402,90	14,180
403,11	15,549
403,32	20,885
403,52	16,439
403,73	21,335
403,93	18,830
404,14	22,138
404,35	19,818
404,55	20,467
404,76	19,441
404,96	20,205
405,17	22,814
405,38	23,616
405,58	18,760
405,79	20,076
405,99	20,720
406,20	20,640
406,40	18,490
406,61	22,936
406,82	23,794
407,02	22,674
407,23	21,765
407,43	23,807
407,64	21,429
407,85	22,259
408,05	17,643
408,26	30,597
408,46	25,939
408,67	21,966
408,87	24,351
409,08	20,757
409,29	29,395
409,49	25,299
409,70	23,191
409,90	24,671
410,11	26,282
410,31	28,732
410,52	22,996
410,72	24,249
410,93	27,183
411,14	25,558
411,34	22,492
411,55	28,081
411,75	28,208
411,96	26,742
412,16	23,773
412,37	26,413
412,57	28,456
412,78	28,979
412,99	25,398
413,19	25,707
413,40	23,860
413,60	22,034
413,81	26,807
414,01	29,694
414,22	27,665
414,42	29,266
414,63	29,494
414,83	29,716
415,04	34,078
415,24	31,102
415,45	28,369
415,65	30,202
415,86	30,172
416,07	29,374
416,27	30,867
416,48	32,799
416,68	31,937
416,89	28,494
417,09	31,862
417,30	32,233
417,50	29,017
417,71	31,982
417,91	33,601
418,12	33,097
418,32	30,761
418,53	30,102
418,73	32,541
418,94	31,084
419,14	31,298
419,35	29,054
419,55	31,641
419,76	31,560
419,96	30,280
420,17	33,655
420,37	30,532
420,58	36,444
420,78	30,640
420,99	31,002
421,19	35,277
421,40	33,897
421,60	36,810
421,81	30,524
422,01	32,534
422,22	33,846
422,42	33,585
422,63	35,019
422,83	32,368
423,04	37,149
423,24	35,782
423,45	27,257
423,65	39,404
423,86	36,469
424,06	37,747
424,27	30,884
424,47	31,928
424,67	31,763
424,88	32,342
425,08	33,332
425,29	39,511
425,49	36,182
425,70	30,039
425,90	34,508
426,11	32,418
426,31	34,354
426,52	35,897
426,72	33,899
426,93	33,066
427,13	38,544
427,33	33,984
427,54	37,402
427,74	42,355
427,95	36,390
428,15	34,319
428,36	39,372
428,56	35,270
428,77	36,790
428,97	34,752
429,18	38,777
429,38	33,354
429,58	38,269
429,79	39,485
429,99	38,621
430,20	32,366
430,40	37,241
430,61	36,131
430,81	36,658
431,01	36,071
431,22	34,696
431,42	36,069
431,63	35,365
431,83	39,364
432,04	38,386
432,24	38,845
432,44	33,875
432,65	34,385
432,85	36,557
433,06	35,454
433,26	33,083
433,47	32,982
433,67	33,139
433,87	37,241
434,08	31,303
434,28	33,631
434,49	33,210
434,69	34,330
434,89	32,865
435,10	32,230
435,30	36,448
435,51	30,495
435,71	32,882
435,91	30,488
436,12	33,792
436,32	34,659
436,53	34,789
436,73	34,255
436,93	35,713
437,14	35,114
437,34	38,790
437,55	36,331
437,75	38,940
437,95	35,671
438,16	33,095
438,36	35,108
438,57	31,972
438,77	33,426
438,97	35,342
439,18	38,662
439,38	38,835
439,58	33,308
439,79	35,634
439,99	33,510
440,20	37,177
440,40	38,898
440,60	41,027
440,81	35,293
441,01	35,403
441,21	37,186
441,42	38,401
441,62	36,318
441,83	36,011
442,03	38,733
442,23	38,331
442,44	36,429
442,64	38,081
442,84	31,091
443,05	35,741
443,25	34,430
443,45	38,860
443,66	37,105
443,86	34,093
444,06	35,989
444,27	35,791
444,47	36,281
444,67	33,509
444,88	37,925
445,08	39,571
445,28	39,142
445,49	33,096
445,69	29,016
445,90	38,515
446,10	42,167
446,30	34,171
446,51	37,151
446,71	39,754
446,91	39,218
447,12	39,658
447,32	38,656
447,52	33,490
447,72	40,227
447,93	38,136
448,13	31,509
448,33	40,282
448,54	40,995
448,74	33,937
448,94	36,782
449,15	41,139
449,35	35,532
449,55	37,241
449,76	41,283
449,96	33,357
450,16	38,759
450,37	36,488
450,57	37,955
450,77	31,717
450,98	38,483
451,18	38,433
451,38	38,679
451,58	36,947
451,79	39,478
451,99	40,186
452,19	33,727
452,40	32,730
452,60	32,307
452,80	34,623
453,00	40,857
453,21	35,703
453,41	38,900
453,61	34,346
