Fichero De Datos De SpectraSuite
++++++++++++++++++++++++++++++++++++
Fecha: Wed Apr 22 11:12:38 CEST 2009
Usuario: evoflor
Presente Oscuro Del Espectro: Sí
La Referencia de Presente Del Espectro De: Sí
Muestreados de los componentes de Número de espectros: 1
Espectrómetros: USB4F02353
Tiempo de integración (usec): 500000 (USB4F02353)
Promedio de Espectros Hechos un: 5 (USB4F02353)
El Alisar Del Furgón: 0 (USB4F02353)
Párrafo de de Corregir del la del del de Eléctrica del obscuridad: Sí (USB4F02353)
Estrobo/Lámpara Permitido: No (USB4F02353)
Correct for Detector Non-linearity: No (USB4F02353)
Párrafo de de Corregir del la del del de Externa del luz: No (USB4F02353)
Procesado del espectro de Número de pixeles en: 3648
>>>>> Comienza Data<<<<< Espectral Procesado Del EL
177,79	278,045
178,00	278,045
178,22	278,045
178,44	1288,736
178,66	-84,284
178,88	167,997
179,09	-48,617
179,31	181,087
179,53	372,523
179,75	232,304
179,96	416,595
180,18	-345,308
180,40	308,678
180,62	386,008
180,83	-220,558
181,05	-501,524
181,27	-89725,000
181,49	-48,315
181,70	192,788
181,92	1017,386
182,14	424,774
182,36	103,776
182,58	785,750
182,79	509,040
183,01	-37,715
183,23	195,883
183,45	-13,000
183,66	-30,642
183,88	-276,912
184,10	-3611,364
184,32	288,923
184,53	248,013
184,75	-94,499
184,97	1,843
185,18	51,269
185,40	-621,755
185,62	43,801
185,84	150,710
186,05	96,860
186,27	-51,819
186,49	1477,885
186,71	59,658
186,92	79,111
187,14	61,347
187,36	97,462
187,58	66,123
187,79	-17,363
188,01	159,544
188,23	-157,741
188,45	10,571
188,66	263,951
188,88	-1336,818
189,10	-1473,250
189,31	21,971
189,53	-15,283
189,75	163,011
189,97	217,019
190,18	49,034
190,40	570,147
190,62	-99,055
190,83	-190,321
191,05	95,429
191,27	325,786
191,49	304,517
191,70	-561,178
191,92	-462,924
192,14	-9,347
192,35	624,735
192,57	480,714
192,79	32,173
193,01	128,708
193,22	141,462
193,44	-16,425
193,66	75,512
193,87	115,043
194,09	21,844
194,31	237,189
194,53	702,972
194,74	169,395
194,96	16,912
195,18	91,426
195,39	-322,230
195,61	-57,546
195,83	2,554
196,04	101,082
196,26	-247,362
196,48	-66,989
196,70	194,483
196,91	133,632
197,13	44,873
197,35	76,939
197,56	823,916
197,78	1368,097
198,00	-64,860
198,21	400,607
198,43	-746,657
198,65	160,759
198,86	76,709
199,08	453,525
199,30	238,107
199,51	-374,349
199,73	312,874
199,95	251,052
200,16	618,558
200,38	343,346
200,60	117,725
200,81	278,854
201,03	13,927
201,25	-1734,250
201,46	169,195
201,68	43,002
201,90	1957,386
202,11	-167,271
202,33	169,165
202,55	480,313
202,76	-51,173
202,98	121,341
203,20	-215,024
203,41	-666,447
203,63	128,969
203,85	-130225,000
204,06	120,476
204,28	-120,783
204,50	120,902
204,71	300,044
204,93	-599,800
205,15	94,051
205,36	-216,300
205,58	175,672
205,80	-4,338
206,01	56,303
206,23	154,293
206,45	221,500
206,66	94,666
206,88	18,613
207,10	150,739
207,31	378,709
207,53	84,071
207,75	10,437
207,96	857,649
208,18	-100,896
208,39	130,763
208,61	7475,000
208,83	-354,853
209,04	101,552
209,26	67,627
209,48	253,529
209,69	212,944
209,91	446,030
210,13	69,181
210,34	-7,203
210,56	102,930
210,77	-1571,063
210,99	17,602
211,21	3054,412
211,42	55,584
211,64	-24,207
211,86	264,689
212,07	237,608
212,29	201,585
212,50	127,635
212,72	286,250
212,94	164,470
213,15	212,559
213,37	129,237
213,58	84,424
213,80	-2143,750
214,02	8877,941
214,23	188,367
214,45	52,213
214,67	-1039,329
214,88	43,205
215,10	-192,826
215,31	32,806
215,53	-164,261
215,75	210,826
215,96	1222,516
216,18	110,211
216,39	112,274
216,61	323,635
216,83	22,879
217,04	1463,202
217,26	51,815
217,47	117,860
217,69	230,951
217,91	332,410
218,12	-61825,000
218,34	25,487
218,55	252,321
218,77	75,494
218,99	84,494
219,20	-3,242
219,42	331,593
219,63	-28,198
219,85	-110,714
220,06	-246,827
220,28	148,186
220,50	23,546
220,71	99,866
220,93	2287,264
221,14	-834,250
221,36	71,080
221,58	80,682
221,79	69,068
222,01	641,595
222,22	98,849
222,44	-367,135
222,65	89,120
222,87	595,979
223,09	102,365
223,30	109,231
223,52	126,171
223,73	149,830
223,95	-78,979
224,16	262,938
224,38	270,201
224,60	-0,914
224,81	189,385
225,03	119,631
225,24	-1,720
225,46	44,394
225,67	40,377
225,89	-52,192
226,10	592,846
226,32	-369,400
226,54	4,926
226,75	-65,338
226,97	32,950
227,18	91,641
227,40	19,804
227,61	52,350
227,83	4,451
228,04	58,029
228,26	64,624
228,47	49,279
228,69	137,878
228,91	36,370
229,12	29,501
229,34	41,994
229,55	37,495
229,77	35,013
229,98	40,650
230,20	81,486
230,41	-40,089
230,63	68,827
230,84	-43,408
231,06	6,708
231,27	49,540
231,49	28,750
231,71	48,333
231,92	28,353
232,14	5,149
232,35	82,940
232,57	54,240
232,78	27,082
233,00	41,061
233,21	22,174
233,43	22,044
233,64	18,383
233,86	46,512
234,07	4,797
234,29	30,927
234,50	10,679
234,72	20,058
234,93	-7,251
235,15	28,755
235,36	18,496
235,58	19,318
235,79	28,547
236,01	5,035
236,22	12,413
236,44	34,870
236,65	19,134
236,87	19,601
237,08	-1,901
237,30	-20,235
237,51	11,241
237,73	-9,743
237,94	11,710
238,16	11,485
238,37	7,925
238,59	8,025
238,80	-2,973
239,02	5,778
239,23	13,225
239,45	-11,638
239,66	25,768
239,88	20,780
240,09	11,682
240,31	6,265
240,52	13,478
240,74	17,915
240,95	10,220
241,17	3,461
241,38	5,082
241,60	6,803
241,81	17,138
242,03	-0,584
242,24	3,840
242,46	22,507
242,67	4,765
242,89	3,805
243,10	13,694
243,32	14,493
243,53	11,778
243,75	4,460
243,96	6,516
244,18	10,823
244,39	4,747
244,60	6,001
244,82	2,780
245,03	14,733
245,25	9,496
245,46	17,024
245,68	3,526
245,89	13,035
246,11	9,114
246,32	6,475
246,54	9,402
246,75	4,749
246,97	1,386
247,18	18,253
247,39	3,961
247,61	13,026
247,82	-0,235
248,04	12,342
248,25	8,213
248,47	13,347
248,68	11,378
248,90	2,359
249,11	8,749
249,33	15,696
249,54	6,624
249,75	5,812
249,97	1,205
250,18	10,227
250,40	11,920
250,61	-4,472
250,83	0,237
251,04	2,346
251,25	6,799
251,47	-0,468
251,68	11,377
251,90	8,766
252,11	9,145
252,33	3,695
252,54	4,806
252,76	2,889
252,97	5,414
253,18	2,706
253,40	3,644
253,61	1,173
253,83	8,339
254,04	10,194
254,25	1,660
254,47	5,863
254,68	4,620
254,90	2,827
255,11	9,218
255,33	6,333
255,54	-0,577
255,75	-0,416
255,97	0,828
256,18	2,453
256,40	4,082
256,61	2,691
256,82	-1,022
257,04	9,489
257,25	-0,155
257,47	4,885
257,68	2,973
257,89	9,062
258,11	8,440
258,32	6,467
258,54	6,816
258,75	9,549
258,96	10,934
259,18	2,400
259,39	0,631
259,61	2,743
259,82	1,363
260,03	1,018
260,25	4,561
260,46	-0,567
260,68	4,700
260,89	5,548
261,10	4,239
261,32	5,593
261,53	1,471
261,75	4,183
261,96	1,775
262,17	10,707
262,39	9,584
262,60	5,277
262,81	-0,386
263,03	6,081
263,24	7,066
263,46	0,192
263,67	3,355
263,88	-0,503
264,10	5,184
264,31	1,190
264,52	6,575
264,74	6,976
264,95	1,316
265,17	6,428
265,38	4,481
265,59	8,232
265,81	7,578
266,02	2,099
266,23	0,909
266,45	6,886
266,66	8,275
266,87	9,413
267,09	4,125
267,30	8,304
267,52	8,514
267,73	2,862
267,94	2,814
268,16	5,959
268,37	5,117
268,58	6,779
268,80	3,640
269,01	1,251
269,22	6,646
269,44	5,189
269,65	4,126
269,86	0,293
270,08	5,383
270,29	2,411
270,50	5,430
270,72	7,214
270,93	4,488
271,14	2,253
271,36	2,557
271,57	4,061
271,78	5,760
272,00	9,103
272,21	5,442
272,42	5,472
272,64	8,488
272,85	-0,121
273,06	2,446
273,28	4,256
273,49	6,053
273,70	5,217
273,92	5,824
274,13	5,770
274,34	2,914
274,56	4,920
274,77	-0,046
274,98	5,460
275,20	6,620
275,41	6,214
275,62	3,813
275,84	2,481
276,05	9,487
276,26	2,140
276,47	1,722
276,69	6,507
276,90	3,838
277,11	1,763
277,33	1,134
277,54	6,359
277,75	2,738
277,97	1,842
278,18	3,084
278,39	8,879
278,61	1,735
278,82	3,672
279,03	3,183
279,24	4,716
279,46	5,043
279,67	5,863
279,88	6,417
280,10	6,201
280,31	2,678
280,52	4,415
280,73	3,187
280,95	5,955
281,16	4,946
281,37	2,193
281,59	7,650
281,80	8,462
282,01	3,305
282,22	4,103
282,44	1,857
282,65	9,139
282,86	8,681
283,08	3,885
283,29	4,859
283,50	5,458
283,71	7,295
283,93	4,511
284,14	7,068
284,35	-0,735
284,56	3,536
284,78	2,590
284,99	4,427
285,20	7,440
285,42	5,673
285,63	2,027
285,84	0,514
286,05	2,090
286,27	2,194
286,48	0,437
286,69	0,576
286,90	-0,416
287,12	0,163
287,33	1,831
287,54	4,242
287,75	4,714
287,97	6,262
288,18	2,943
288,39	3,407
288,60	4,801
288,82	5,658
289,03	2,156
289,24	3,705
289,45	7,296
289,67	4,897
289,88	4,138
290,09	5,065
290,30	3,892
290,52	4,867
290,73	0,369
290,94	2,932
291,15	3,924
291,37	6,316
291,58	1,015
291,79	3,355
292,00	4,895
292,21	5,754
292,43	3,477
292,64	1,751
292,85	4,143
293,06	5,546
293,28	2,779
293,49	0,282
293,70	7,338
293,91	4,179
294,12	4,099
294,34	2,918
294,55	2,221
294,76	3,256
294,97	5,776
295,19	2,139
295,40	6,182
295,61	5,106
295,82	1,203
296,03	4,304
296,25	5,505
296,46	1,807
296,67	0,824
296,88	1,789
297,09	4,194
297,31	3,599
297,52	4,865
297,73	3,797
297,94	6,764
298,15	6,056
298,37	4,340
298,58	6,878
298,79	5,148
299,00	1,354
299,21	2,161
299,43	0,430
299,64	6,457
299,85	6,361
300,06	2,776
300,27	2,444
300,49	7,946
300,70	1,519
300,91	3,522
301,12	1,732
301,33	5,805
301,54	3,045
301,76	4,362
301,97	2,402
302,18	0,963
302,39	8,254
302,60	4,110
302,82	1,908
303,03	5,076
303,24	4,726
303,45	5,305
303,66	3,510
303,87	3,830
304,09	4,705
304,30	2,666
304,51	3,282
304,72	2,369
304,93	4,239
305,14	5,236
305,36	2,261
305,57	2,104
305,78	5,072
305,99	4,811
306,20	1,188
306,41	1,311
306,62	1,336
306,84	3,646
307,05	2,342
307,26	5,367
307,47	6,573
307,68	3,564
307,89	3,094
308,11	3,499
308,32	1,866
308,53	5,510
308,74	1,691
308,95	5,181
309,16	5,219
309,37	6,005
309,59	2,497
309,80	4,322
310,01	4,117
310,22	5,836
310,43	3,386
310,64	5,364
310,85	5,273
311,06	2,960
311,28	5,224
311,49	5,052
311,70	5,989
311,91	1,219
312,12	2,812
312,33	4,869
312,54	5,385
312,75	1,368
312,97	2,713
313,18	5,778
313,39	3,011
313,60	3,375
313,81	4,719
314,02	2,979
314,23	4,891
314,44	3,583
314,65	2,845
314,87	1,823
315,08	4,371
315,29	6,002
315,50	5,333
315,71	5,390
315,92	6,783
316,13	5,072
316,34	2,069
316,55	4,856
316,77	1,884
316,98	0,887
317,19	3,303
317,40	5,768
317,61	6,691
317,82	4,186
318,03	1,893
318,24	3,600
318,45	6,553
318,66	2,933
318,87	0,359
319,09	4,774
319,30	5,004
319,51	5,670
319,72	4,425
319,93	5,828
320,14	5,458
320,35	4,427
320,56	1,705
320,77	-0,873
320,98	6,352
321,19	5,757
321,40	4,856
321,62	7,172
321,83	5,467
322,04	3,824
322,25	2,274
322,46	4,682
322,67	5,349
322,88	4,134
323,09	2,335
323,30	3,666
323,51	5,840
323,72	5,816
323,93	4,915
324,14	2,216
324,35	2,470
324,56	0,397
324,77	2,586
324,99	3,642
325,20	-1,577
325,41	6,281
325,62	4,082
325,83	2,987
326,04	3,845
326,25	7,913
326,46	2,061
326,67	1,798
326,88	3,339
327,09	2,196
327,30	3,893
327,51	3,263
327,72	4,114
327,93	5,981
328,14	-0,600
328,35	1,353
328,56	2,844
328,77	4,166
328,98	6,252
329,19	4,527
329,40	5,558
329,61	3,673
329,82	0,818
330,04	2,522
330,25	6,063
330,46	4,488
330,67	0,432
330,88	3,279
331,09	3,884
331,30	5,536
331,51	4,598
331,72	4,419
331,93	5,058
332,14	1,561
332,35	4,570
332,56	4,224
332,77	5,409
332,98	2,225
333,19	1,332
333,40	3,535
333,61	0,886
333,82	4,656
334,03	3,595
334,24	3,893
334,45	3,879
334,66	7,342
334,87	4,631
335,08	2,721
335,29	3,040
335,50	2,080
335,71	2,011
335,92	4,093
336,13	5,962
336,34	1,012
336,55	5,056
336,76	2,672
336,97	2,805
337,18	1,653
337,39	5,060
337,60	3,029
337,81	3,161
338,02	2,757
338,23	5,433
338,44	3,458
338,65	3,442
338,86	3,744
339,07	2,654
339,28	5,257
339,49	4,548
339,70	-0,540
339,91	3,922
340,11	5,095
340,32	1,810
340,53	0,260
340,74	-1,104
340,95	2,587
341,16	4,601
341,37	6,213
341,58	3,728
341,79	2,766
342,00	6,805
342,21	3,401
342,42	2,876
342,63	2,771
342,84	4,152
343,05	3,029
343,26	5,355
343,47	4,142
343,68	2,896
343,89	3,994
344,10	4,363
344,31	6,859
344,52	3,668
344,73	0,962
344,94	6,122
345,14	3,217
345,35	5,943
345,56	1,594
345,77	2,685
345,98	3,805
346,19	4,292
346,40	4,260
346,61	5,230
346,82	4,638
347,03	2,497
347,24	6,974
347,45	1,812
347,66	6,642
347,87	5,076
348,08	6,360
348,28	4,297
348,49	5,985
348,70	5,133
348,91	2,767
349,12	1,617
349,33	16,348
349,54	3,576
349,75	3,828
349,96	2,832
350,17	5,537
350,38	2,680
350,59	6,538
350,80	4,630
351,00	4,456
351,21	7,788
351,42	2,065
351,63	0,724
351,84	6,591
352,05	4,247
352,26	2,429
352,47	3,553
352,68	4,890
352,89	6,189
353,09	5,406
353,30	1,375
353,51	5,593
353,72	5,819
353,93	5,134
354,14	1,008
354,35	2,665
354,56	6,177
354,77	5,089
354,98	0,589
355,18	6,779
355,39	8,776
355,60	2,618
355,81	4,890
356,02	5,286
356,23	5,988
356,44	1,880
356,65	4,836
356,85	10,196
357,06	4,518
357,27	7,554
357,48	3,739
357,69	3,999
357,90	5,422
358,11	1,994
358,32	4,913
358,52	6,859
358,73	2,532
358,94	3,821
359,15	5,075
359,36	5,533
359,57	4,603
359,78	4,464
359,98	4,614
360,19	-0,100
360,40	1,372
360,61	8,183
360,82	4,122
361,03	6,110
361,24	5,788
361,44	0,384
361,65	2,050
361,86	2,539
362,07	6,969
362,28	3,921
362,49	3,794
362,70	3,160
362,90	5,413
363,11	1,712
363,32	1,254
363,53	4,185
363,74	6,249
363,95	3,377
364,15	3,880
364,36	8,086
364,57	6,194
364,78	4,776
364,99	2,482
365,20	5,058
365,40	3,460
365,61	3,606
365,82	7,083
366,03	4,199
366,24	3,693
366,45	1,297
366,65	3,903
366,86	5,078
367,07	6,644
367,28	2,886
367,49	2,960
367,69	8,791
367,90	1,854
368,11	4,661
368,32	4,899
368,53	4,725
368,73	6,353
368,94	3,471
369,15	3,436
369,36	6,069
369,57	4,802
369,78	2,613
369,98	5,838
370,19	8,752
370,40	3,301
370,61	2,508
370,82	2,210
371,02	3,906
371,23	9,404
371,44	4,504
371,65	4,767
371,85	4,126
372,06	3,022
372,27	6,549
372,48	7,936
372,69	3,619
372,89	1,652
373,10	4,795
373,31	5,427
373,52	4,067
373,73	6,897
373,93	6,344
374,14	3,310
374,35	9,179
374,56	6,349
374,76	4,314
374,97	2,432
375,18	6,496
375,39	6,581
375,60	7,062
375,80	4,748
376,01	5,444
376,22	4,602
376,43	5,859
376,63	3,154
376,84	2,960
377,05	4,884
377,26	4,052
377,46	2,825
377,67	4,833
377,88	4,664
378,09	7,629
378,29	3,307
378,50	7,020
378,71	3,176
378,92	4,336
379,12	2,984
379,33	3,910
379,54	4,194
379,75	6,609
379,95	1,606
380,16	4,339
380,37	5,659
380,58	4,268
380,78	3,510
380,99	3,577
381,20	5,306
381,41	5,841
381,61	6,662
381,82	4,708
382,03	4,501
382,24	3,803
382,44	2,018
382,65	3,758
382,86	7,216
383,06	4,995
383,27	3,731
383,48	2,872
383,69	5,829
383,89	3,656
384,10	4,472
384,31	4,299
384,51	3,910
384,72	6,015
384,93	2,785
385,14	4,537
385,34	7,562
385,55	5,686
385,76	3,629
385,96	3,117
386,17	2,069
386,38	7,186
386,59	6,601
386,79	2,679
387,00	6,422
387,21	5,197
387,41	6,833
387,62	1,262
387,83	9,185
388,03	2,801
388,24	1,289
388,45	3,542
388,66	6,849
388,86	5,829
389,07	1,039
389,28	9,047
389,48	7,625
389,69	1,199
389,90	3,923
390,10	7,279
390,31	8,607
390,52	-0,641
390,72	4,558
390,93	9,337
391,14	2,099
391,34	4,507
391,55	9,287
391,76	8,510
391,96	2,751
392,17	4,019
392,38	7,842
392,58	4,178
392,79	4,401
393,00	1,792
393,20	3,157
393,41	3,970
393,62	2,676
393,82	6,694
394,03	5,564
394,24	5,286
394,44	5,831
394,65	5,842
394,86	6,049
395,06	4,415
395,27	2,044
395,48	4,138
395,68	4,907
395,89	6,942
396,10	7,660
396,30	4,962
396,51	2,781
396,72	6,252
396,92	3,499
397,13	4,795
397,34	0,390
397,54	11,662
397,75	3,595
397,95	4,130
398,16	7,809
398,37	5,851
398,57	5,589
398,78	10,975
398,99	8,608
399,19	6,840
399,40	6,339
399,60	5,325
399,81	8,292
400,02	9,323
400,22	8,833
400,43	6,763
400,64	6,348
400,84	5,118
401,05	8,093
401,25	7,756
401,46	8,366
401,67	9,492
401,87	5,997
402,08	3,236
402,29	4,247
402,49	9,342
402,70	8,984
402,90	6,238
403,11	7,241
403,32	9,776
403,52	4,671
403,73	11,296
403,93	7,274
404,14	12,220
404,35	4,150
404,55	3,105
404,76	7,598
404,96	8,419
405,17	11,983
405,38	11,676
405,58	5,821
405,79	10,887
405,99	12,725
406,20	6,935
406,40	5,757
406,61	11,297
406,82	7,215
407,02	10,517
407,23	5,954
407,43	9,164
407,64	9,179
407,85	8,671
408,05	6,909
408,26	17,335
408,46	10,700
408,67	6,465
408,87	8,436
409,08	10,698
409,29	9,387
409,49	12,337
409,70	10,819
409,90	13,957
410,11	8,201
410,31	10,095
410,52	9,721
410,72	10,512
410,93	12,990
411,14	10,995
411,34	6,372
411,55	11,559
411,75	17,278
411,96	14,943
412,16	11,070
412,37	8,545
412,57	16,315
412,78	12,450
412,99	11,530
413,19	10,943
413,40	15,205
413,60	10,176
413,81	11,783
414,01	10,835
414,22	11,591
414,42	12,040
414,63	10,068
414,83	15,755
415,04	13,155
415,24	16,921
415,45	12,873
415,65	16,204
415,86	12,162
416,07	13,151
416,27	15,544
416,48	17,664
416,68	15,344
416,89	10,363
417,09	14,672
417,30	12,840
417,50	14,841
417,71	16,486
417,91	15,008
418,12	12,814
418,32	14,187
418,53	15,155
418,73	13,169
418,94	15,090
419,14	16,073
419,35	8,836
419,55	14,893
419,76	14,559
419,96	13,943
420,17	14,241
420,37	14,275
420,58	18,627
420,78	17,159
420,99	16,091
421,19	16,907
421,40	14,826
421,60	17,328
421,81	14,962
422,01	17,195
422,22	16,047
422,42	17,677
422,63	16,729
422,83	19,830
423,04	20,507
423,24	20,243
423,45	12,707
423,65	17,893
423,86	22,280
424,06	19,417
424,27	15,425
424,47	13,039
424,67	12,870
424,88	16,844
425,08	16,615
425,29	21,909
425,49	14,771
425,70	10,023
425,90	19,692
426,11	14,393
426,31	18,080
426,52	19,489
426,72	13,663
426,93	14,608
427,13	21,990
427,33	16,296
427,54	20,277
427,74	20,476
427,95	21,139
428,15	13,651
428,36	17,335
428,56	17,161
428,77	18,347
428,97	18,341
429,18	18,142
429,38	12,630
429,58	24,193
429,79	18,653
429,99	16,409
430,20	13,560
430,40	20,868
430,61	18,158
430,81	16,201
431,01	19,791
431,22	18,588
431,42	24,291
431,63	16,101
431,83	18,118
432,04	18,718
432,24	19,091
432,44	16,568
432,65	15,113
432,85	17,088
433,06	18,949
433,26	19,257
433,47	16,595
433,67	17,731
433,87	16,777
434,08	16,324
434,28	19,146
434,49	14,567
434,69	18,045
434,89	17,645
435,10	16,464
435,30	20,854
435,51	12,069
435,71	18,646
435,91	15,827
436,12	16,994
436,32	16,673
436,53	15,841
436,73	17,094
436,93	18,459
437,14	17,993
437,34	19,703
437,55	17,124
437,75	19,364
437,95	19,292
438,16	17,654
438,36	16,718
438,57	14,822
438,77	15,947
438,97	19,307
439,18	20,368
439,38	19,119
439,58	15,660
439,79	17,271
439,99	15,923
440,20	21,996
440,40	18,360
440,60	17,106
440,81	18,512
441,01	17,866
441,21	19,719
441,42	20,141
441,62	19,605
441,83	17,683
442,03	18,947
442,23	20,249
442,44	20,878
442,64	19,556
442,84	20,687
443,05	15,748
443,25	18,434
443,45	14,760
443,66	21,681
443,86	16,071
444,06	15,529
444,27	16,869
444,47	15,595
444,67	15,679
444,88	22,789
445,08	18,631
445,28	21,028
445,49	15,242
445,69	14,056
445,90	18,216
446,10	19,866
446,30	16,511
446,51	16,781
446,71	23,994
446,91	24,271
447,12	22,466
447,32	19,060
447,52	19,743
447,72	19,078
447,93	16,770
448,13	11,758
448,33	22,727
448,54	20,810
448,74	16,989
448,94	16,782
449,15	24,746
449,35	18,324
449,55	19,482
449,76	18,437
449,96	21,562
450,16	21,693
450,37	15,949
450,57	20,084
450,77	15,642
450,98	21,972
451,18	20,027
451,38	20,599
451,58	18,099
451,79	18,695
451,99	20,512
452,19	17,457
452,40	16,528
452,60	18,325
452,80	17,614
453,00	17,313
453,21	21,002
453,41	21,315
453,61	18,907
453,82	23,312
454,02	13,524
454,22	20,231
454,42	17,643
454,63	15,111
