Fichero De Datos De SpectraSuite
++++++++++++++++++++++++++++++++++++
Fecha: Wed Apr 22 11:12:03 CEST 2009
Usuario: evoflor
Presente Oscuro Del Espectro: Sí
La Referencia de Presente Del Espectro De: Sí
Muestreados de los componentes de Número de espectros: 1
Espectrómetros: USB4F02353
Tiempo de integración (usec): 500000 (USB4F02353)
Promedio de Espectros Hechos un: 5 (USB4F02353)
El Alisar Del Furgón: 0 (USB4F02353)
Párrafo de de Corregir del la del del de Eléctrica del obscuridad: Sí (USB4F02353)
Estrobo/Lámpara Permitido: No (USB4F02353)
Correct for Detector Non-linearity: No (USB4F02353)
Párrafo de de Corregir del la del del de Externa del luz: No (USB4F02353)
Procesado del espectro de Número de pixeles en: 3648
>>>>> Comienza Data<<<<< Espectral Procesado Del EL
177,79	165,392
178,00	165,392
178,22	165,392
178,44	1165,110
178,66	-95,027
178,88	360,016
179,09	-310,957
179,31	192,826
179,53	457,508
179,75	355,648
179,96	575,647
180,18	-122,385
180,40	355,971
180,62	480,305
180,83	-255,888
181,05	-1341,159
181,27	-19975,000
181,49	-47,337
181,70	461,058
181,92	489,721
182,14	385,467
182,36	125,287
182,58	322,250
182,79	551,228
183,01	40,899
183,23	139,132
183,45	-144,538
183,66	86,836
183,88	212,794
184,10	-2817,727
184,32	205,384
184,53	157,623
184,75	-124,284
184,97	70,182
185,18	-98,449
185,40	-429,207
185,62	100,281
185,84	141,867
186,05	133,347
186,27	-10,203
186,49	1322,115
186,71	48,927
186,92	107,950
187,14	-83,249
187,36	82,767
187,58	159,973
187,79	2,470
188,01	149,111
188,23	-141,122
188,45	-14,751
188,66	370,424
188,88	-1934,091
189,10	-1153,750
189,31	39,633
189,53	-12,819
189,75	219,261
189,97	426,442
190,18	-115,129
190,40	509,265
190,62	-91,121
190,83	-107,150
191,05	170,548
191,27	-68,929
191,49	606,374
191,70	-96,034
191,92	-741,314
192,14	-102,464
192,35	365,716
192,57	1599,286
192,79	-82,495
193,01	91,440
193,22	87,869
193,44	24,275
193,66	114,685
193,87	13,865
194,09	-35,446
194,31	101,391
194,53	1102,622
194,74	106,250
194,96	69,277
195,18	163,881
195,39	-145,317
195,61	-16,674
195,83	-55,163
196,04	90,596
196,26	-150,126
196,48	33,448
196,70	211,481
196,91	83,538
197,13	64,241
197,35	-55,860
197,56	869,892
197,78	1586,381
198,00	265,559
198,21	367,840
198,43	-827,762
198,65	62,838
198,86	152,788
199,08	142,213
199,30	235,374
199,51	-100,244
199,73	219,793
199,95	192,017
200,16	388,365
200,38	219,511
200,60	212,090
200,81	85,171
201,03	22,486
201,25	-874,750
201,46	140,659
201,68	111,287
201,90	2601,705
202,11	-151,813
202,33	95,646
202,55	-819,062
202,76	-69,193
202,98	113,502
203,20	90,024
203,41	-375,132
203,63	115,848
203,85	-154075,000
204,06	48,434
204,28	-91,506
204,50	46,707
204,71	276,988
204,93	-13,000
205,15	-10,316
205,36	-139,723
205,58	190,355
205,80	-103,354
206,01	72,729
206,23	153,892
206,45	145,134
206,66	126,174
206,88	14,832
207,10	247,898
207,31	297,053
207,53	147,071
207,75	12,051
207,96	397,575
208,18	-146,203
208,39	116,829
208,61	2653,571
208,83	-183,809
209,04	195,021
209,26	102,880
209,48	150,646
209,69	93,185
209,91	566,132
210,13	74,852
210,34	-78,027
210,56	103,315
210,77	-1085,630
210,99	104,742
211,21	7475,000
211,42	-88,285
211,64	-0,711
211,86	81,301
212,07	257,767
212,29	161,466
212,50	120,922
212,72	246,442
212,94	52,955
213,15	188,847
213,37	193,182
213,58	-30,322
213,80	-263,393
214,02	10598,529
214,23	128,422
214,45	168,770
214,67	447,866
214,88	-9,648
215,10	-247,491
215,31	16,103
215,53	49,489
215,75	178,739
215,96	1476,863
216,18	129,225
216,39	185,501
216,61	308,897
216,83	73,103
217,04	2064,888
217,26	64,153
217,47	134,060
217,69	224,444
217,91	-2,771
218,12	-42475,000
218,34	69,352
218,55	322,745
218,77	74,090
218,99	84,043
219,20	-145,822
219,42	217,035
219,63	49,520
219,85	-82,628
220,06	42,212
220,28	87,535
220,50	67,351
220,71	69,843
220,93	2176,887
221,14	-1135,750
221,36	-7,218
221,58	178,045
221,79	-75,847
222,01	1592,026
222,22	439,309
222,44	-351,966
222,65	47,813
222,87	454,371
223,09	108,892
223,30	38,467
223,52	54,610
223,73	79,613
223,95	38,275
224,16	83,866
224,38	175,296
224,60	68,021
224,81	50,522
225,03	31,911
225,24	10,798
225,46	79,527
225,67	19,032
225,89	2,585
226,10	502,033
226,32	145,400
226,54	-63,880
226,75	60,063
226,97	74,062
227,18	106,379
227,40	54,659
227,61	34,936
227,83	23,249
228,04	75,581
228,26	83,301
228,47	21,865
228,69	134,069
228,91	89,548
229,12	70,499
229,34	24,153
229,55	61,342
229,77	11,529
229,98	13,208
230,20	38,642
230,41	28,111
230,63	70,143
230,84	12,248
231,06	12,935
231,27	40,897
231,49	27,676
231,71	30,957
231,92	16,076
232,14	-2,689
232,35	44,752
232,57	55,106
232,78	27,231
233,00	24,629
233,21	30,769
233,43	17,252
233,64	32,227
233,86	32,956
234,07	39,631
234,29	27,055
234,50	13,133
234,72	20,698
234,93	-12,694
235,15	25,584
235,36	21,063
235,58	22,548
235,79	31,223
236,01	22,846
236,22	10,576
236,44	33,599
236,65	2,819
236,87	23,694
237,08	3,028
237,30	-13,065
237,51	11,957
237,73	7,815
237,94	4,833
238,16	18,042
238,37	-2,717
238,59	11,318
238,80	9,975
239,02	3,340
239,23	23,384
239,45	-6,571
239,66	22,941
239,88	16,781
240,09	9,368
240,31	5,358
240,52	4,904
240,74	5,535
240,95	0,020
241,17	-3,036
241,38	9,181
241,60	7,704
241,81	24,012
242,03	10,028
242,24	15,959
242,46	17,116
242,67	7,159
242,89	7,060
243,10	18,158
243,32	13,491
243,53	5,533
243,75	5,011
243,96	4,398
244,18	10,641
244,39	8,672
244,60	6,597
244,82	1,175
245,03	20,892
245,25	7,657
245,46	23,424
245,68	-0,874
245,89	15,611
246,11	8,543
246,32	9,490
246,54	4,532
246,75	9,177
246,97	6,503
247,18	12,172
247,39	3,487
247,61	6,111
247,82	1,812
248,04	4,752
248,25	8,298
248,47	6,751
248,68	5,653
248,90	-0,286
249,11	7,033
249,33	14,895
249,54	6,708
249,75	8,726
249,97	3,940
250,18	7,878
250,40	13,287
250,61	-4,786
250,83	0,565
251,04	1,337
251,25	5,191
251,47	1,418
251,68	8,239
251,90	7,668
252,11	9,493
252,33	5,067
252,54	2,864
252,76	3,327
252,97	2,247
253,18	2,342
253,40	3,132
253,61	0,294
253,83	9,801
254,04	8,772
254,25	3,582
254,47	0,692
254,68	4,157
254,90	6,090
255,11	9,881
255,33	3,571
255,54	2,543
255,75	2,738
255,97	5,146
256,18	1,550
256,40	3,323
256,61	5,717
256,82	-0,541
257,04	9,424
257,25	4,331
257,47	4,658
257,68	2,279
257,89	5,610
258,11	8,379
258,32	3,018
258,54	6,209
258,75	8,812
258,96	10,543
259,18	5,089
259,39	1,727
259,61	8,986
259,82	4,345
260,03	7,380
260,25	5,876
260,46	5,004
260,68	3,720
260,89	3,248
261,10	8,510
261,32	5,290
261,53	6,175
261,75	3,284
261,96	-0,782
262,17	7,891
262,39	11,088
262,60	4,809
262,81	-0,989
263,03	8,690
263,24	10,375
263,46	0,090
263,67	3,145
263,88	7,691
264,10	10,057
264,31	4,903
264,52	7,237
264,74	5,430
264,95	4,143
265,17	5,776
265,38	3,626
265,59	6,028
265,81	7,036
266,02	2,915
266,23	-1,258
266,45	9,449
266,66	9,007
266,87	7,325
267,09	2,832
267,30	3,512
267,52	6,741
267,73	4,166
267,94	5,955
268,16	7,731
268,37	2,132
268,58	6,315
268,80	1,675
269,01	1,882
269,22	4,872
269,44	9,317
269,65	4,682
269,86	4,380
270,08	6,336
270,29	-0,674
270,50	5,303
270,72	6,711
270,93	5,906
271,14	1,432
271,36	5,583
271,57	5,437
271,78	6,420
272,00	6,355
272,21	7,714
272,42	6,652
272,64	7,928
272,85	4,260
273,06	5,225
273,28	9,025
273,49	5,748
273,70	5,342
273,92	5,420
274,13	8,015
274,34	6,735
274,56	4,866
274,77	4,706
274,98	6,196
275,20	6,103
275,41	8,432
275,62	7,828
275,84	5,937
276,05	9,057
276,26	3,357
276,47	2,164
276,69	8,758
276,90	4,569
277,11	4,216
277,33	3,163
277,54	10,519
277,75	7,530
277,97	3,369
278,18	6,910
278,39	8,510
278,61	3,499
278,82	8,156
279,03	4,626
279,24	5,482
279,46	4,827
279,67	8,274
279,88	4,246
280,10	9,158
280,31	0,136
280,52	5,980
280,73	3,863
280,95	5,536
281,16	6,328
281,37	6,456
281,59	6,147
281,80	12,588
282,01	3,188
282,22	4,274
282,44	2,886
282,65	11,434
282,86	7,865
283,08	6,334
283,29	5,650
283,50	5,650
283,71	5,905
283,93	5,471
284,14	7,662
284,35	5,080
284,56	5,512
284,78	2,269
284,99	3,687
285,20	5,727
285,42	5,992
285,63	2,671
285,84	2,498
286,05	3,718
286,27	5,356
286,48	1,701
286,69	1,467
286,90	3,202
287,12	5,338
287,33	4,873
287,54	4,430
287,75	8,093
287,97	5,980
288,18	5,824
288,39	4,492
288,60	4,815
288,82	3,642
289,03	3,669
289,24	6,655
289,45	7,584
289,67	8,117
289,88	4,124
290,09	6,638
290,30	5,233
290,52	3,120
290,73	4,581
290,94	3,440
291,15	5,123
291,37	7,917
291,58	5,120
291,79	6,144
292,00	4,295
292,21	6,632
292,43	5,004
292,64	4,101
292,85	4,371
293,06	7,755
293,28	4,054
293,49	2,064
293,70	4,851
293,91	3,339
294,12	6,410
294,34	3,244
294,55	3,535
294,76	5,507
294,97	5,547
295,19	1,938
295,40	5,180
295,61	5,831
295,82	1,268
296,03	5,515
296,25	2,557
296,46	3,891
296,67	3,406
296,88	2,308
297,09	7,204
297,31	3,053
297,52	3,640
297,73	3,711
297,94	6,482
298,15	5,199
298,37	5,198
298,58	4,737
298,79	6,566
299,00	4,568
299,21	5,024
299,43	2,363
299,64	8,462
299,85	7,916
300,06	3,967
300,27	4,142
300,49	7,836
300,70	6,166
300,91	5,054
301,12	3,957
301,33	5,524
301,54	4,845
301,76	6,522
301,97	4,872
302,18	2,642
302,39	6,862
302,60	6,563
302,82	5,113
303,03	5,931
303,24	3,481
303,45	4,909
303,66	5,592
303,87	3,512
304,09	9,787
304,30	4,160
304,51	4,735
304,72	4,258
304,93	6,647
305,14	4,938
305,36	1,859
305,57	3,815
305,78	4,474
305,99	4,893
306,20	3,468
306,41	4,179
306,62	3,338
306,84	3,354
307,05	0,837
307,26	4,598
307,47	8,647
307,68	3,673
307,89	2,960
308,11	6,152
308,32	5,699
308,53	5,903
308,74	2,221
308,95	5,194
309,16	7,015
309,37	7,839
309,59	3,328
309,80	5,745
310,01	6,951
310,22	6,988
310,43	3,186
310,64	5,662
310,85	6,526
311,06	3,788
311,28	5,048
311,49	5,887
311,70	8,322
311,91	3,804
312,12	3,227
312,33	7,103
312,54	7,402
312,75	3,481
312,97	3,468
313,18	7,921
313,39	4,922
313,60	4,874
313,81	4,198
314,02	6,749
314,23	4,779
314,44	5,306
314,65	5,444
314,87	4,343
315,08	4,761
315,29	6,736
315,50	3,367
315,71	8,376
315,92	7,063
316,13	6,300
316,34	3,506
316,55	4,966
316,77	0,282
316,98	3,236
317,19	3,606
317,40	7,812
317,61	8,861
317,82	2,449
318,03	2,198
318,24	6,293
318,45	8,720
318,66	5,157
318,87	1,202
319,09	7,346
319,30	3,949
319,51	7,476
319,72	5,676
319,93	7,287
320,14	4,130
320,35	6,311
320,56	2,910
320,77	0,330
320,98	7,917
321,19	7,854
321,40	4,378
321,62	5,708
321,83	5,797
322,04	3,598
322,25	3,388
322,46	6,232
322,67	5,281
322,88	5,580
323,09	4,385
323,30	6,434
323,51	5,432
323,72	8,399
323,93	5,335
324,14	3,263
324,35	1,997
324,56	2,002
324,77	2,354
324,99	1,940
325,20	0,106
325,41	6,222
325,62	6,780
325,83	2,227
326,04	3,072
326,25	7,614
326,46	3,647
326,67	4,787
326,88	5,737
327,09	4,053
327,30	3,211
327,51	3,935
327,72	6,497
327,93	7,746
328,14	1,266
328,35	5,926
328,56	3,957
328,77	6,163
328,98	5,732
329,19	5,322
329,40	5,955
329,61	5,803
329,82	1,735
330,04	2,984
330,25	3,238
330,46	4,728
330,67	4,352
330,88	6,136
331,09	3,235
331,30	5,602
331,51	6,543
331,72	4,161
331,93	6,522
332,14	6,845
332,35	4,049
332,56	3,439
332,77	8,919
332,98	4,838
333,19	4,263
333,40	6,325
333,61	4,373
333,82	6,911
334,03	5,690
334,24	8,408
334,45	4,858
334,66	8,287
334,87	3,770
335,08	4,059
335,29	1,569
335,50	2,683
335,71	3,991
335,92	6,116
336,13	5,635
336,34	3,334
336,55	6,845
336,76	8,522
336,97	3,052
337,18	3,037
337,39	2,591
337,60	8,429
337,81	5,739
338,02	4,770
338,23	4,201
338,44	7,962
338,65	6,379
338,86	4,589
339,07	4,557
339,28	8,832
339,49	6,492
339,70	4,007
339,91	6,626
340,11	8,708
340,32	2,122
340,53	3,033
340,74	3,829
340,95	3,339
341,16	6,555
341,37	5,629
341,58	2,773
341,79	3,988
342,00	4,783
342,21	2,628
342,42	3,652
342,63	6,273
342,84	2,015
343,05	3,124
343,26	7,396
343,47	2,236
343,68	1,162
343,89	2,966
344,10	6,307
344,31	6,654
344,52	4,490
344,73	5,299
344,94	4,943
345,14	5,547
345,35	8,139
345,56	3,376
345,77	3,737
345,98	6,617
346,19	2,626
346,40	5,019
346,61	2,430
346,82	4,990
347,03	4,735
347,24	5,586
347,45	3,590
347,66	9,272
347,87	2,824
348,08	5,412
348,28	3,741
348,49	4,558
348,70	7,468
348,91	4,698
349,12	0,690
349,33	20,350
349,54	3,263
349,75	4,300
349,96	6,259
350,17	4,951
350,38	2,695
350,59	7,798
350,80	2,977
351,00	6,025
351,21	8,956
351,42	5,659
351,63	3,977
351,84	4,578
352,05	5,290
352,26	3,088
352,47	4,590
352,68	3,053
352,89	6,698
353,09	5,974
353,30	2,353
353,51	4,050
353,72	4,071
353,93	9,912
354,14	0,622
354,35	1,839
354,56	5,871
354,77	6,025
354,98	0,993
355,18	4,561
355,39	9,470
355,60	4,307
355,81	7,398
356,02	5,481
356,23	4,786
356,44	2,765
356,65	4,791
356,85	11,673
357,06	8,910
357,27	7,768
357,48	4,594
357,69	5,311
357,90	5,922
358,11	2,792
358,32	3,109
358,52	7,696
358,73	4,319
358,94	3,597
359,15	4,368
359,36	6,447
359,57	4,830
359,78	6,945
359,98	5,710
360,19	0,970
360,40	5,470
360,61	7,163
360,82	5,912
361,03	8,608
361,24	3,940
361,44	2,880
361,65	5,607
361,86	5,840
362,07	4,556
362,28	3,400
362,49	1,740
362,70	5,752
362,90	9,032
363,11	4,574
363,32	4,475
363,53	4,874
363,74	6,790
363,95	8,174
364,15	5,398
364,36	7,019
364,57	5,479
364,78	3,186
364,99	5,631
365,20	5,636
365,40	7,774
365,61	1,481
365,82	5,377
366,03	4,785
366,24	7,207
366,45	4,851
366,65	6,065
366,86	6,768
367,07	4,612
367,28	4,306
367,49	3,777
367,69	7,304
367,90	4,864
368,11	3,329
368,32	3,877
368,53	7,965
368,73	7,746
368,94	2,736
369,15	7,171
369,36	8,300
369,57	5,831
369,78	3,222
369,98	6,817
370,19	11,111
370,40	3,929
370,61	5,973
370,82	6,602
371,02	7,371
371,23	11,098
371,44	4,994
371,65	4,845
371,85	7,558
372,06	7,819
372,27	3,701
372,48	7,434
372,69	4,823
372,89	1,668
373,10	7,198
373,31	3,404
373,52	6,316
373,73	6,572
373,93	5,229
374,14	5,080
374,35	8,156
374,56	6,182
374,76	8,562
374,97	4,388
375,18	4,092
375,39	5,761
375,60	7,453
375,80	6,909
376,01	6,876
376,22	5,825
376,43	4,415
376,63	7,853
376,84	4,945
377,05	7,917
377,26	3,460
377,46	2,148
377,67	7,383
377,88	7,705
378,09	5,129
378,29	2,218
378,50	7,450
378,71	7,346
378,92	2,631
379,12	2,685
379,33	4,368
379,54	4,085
379,75	6,499
379,95	3,579
380,16	9,314
380,37	6,577
380,58	6,219
380,78	5,487
380,99	6,449
381,20	6,836
381,41	6,016
381,61	8,684
381,82	5,141
382,03	3,831
382,24	3,499
382,44	1,938
382,65	3,528
382,86	7,531
383,06	4,780
383,27	4,929
383,48	2,338
383,69	8,698
383,89	8,147
384,10	6,127
384,31	4,546
384,51	6,924
384,72	7,020
384,93	4,841
385,14	6,989
385,34	10,915
385,55	3,607
385,76	1,442
385,96	7,533
386,17	5,386
386,38	5,660
386,59	8,278
386,79	3,057
387,00	10,323
387,21	12,924
387,41	6,248
387,62	3,861
387,83	10,947
388,03	5,987
388,24	0,773
388,45	5,458
388,66	7,438
388,86	5,242
389,07	6,030
389,28	11,073
389,48	8,113
389,69	7,098
389,90	6,300
390,10	9,905
390,31	10,793
390,52	5,118
390,72	5,651
390,93	10,216
391,14	10,098
391,34	7,598
391,55	12,092
391,76	10,728
391,96	8,869
392,17	6,816
392,38	9,962
392,58	9,317
392,79	8,893
393,00	5,481
393,20	5,984
393,41	5,336
393,62	6,099
393,82	9,200
394,03	8,351
394,24	8,048
394,44	10,308
394,65	10,855
394,86	7,612
395,06	12,645
395,27	7,919
395,48	7,663
395,68	11,896
395,89	8,552
396,10	9,431
396,30	7,005
396,51	5,454
396,72	16,472
396,92	6,991
397,13	10,916
397,34	6,836
397,54	11,847
397,75	8,858
397,95	9,101
398,16	10,023
398,37	10,661
398,57	9,273
398,78	12,578
398,99	14,024
399,19	13,052
399,40	14,821
399,60	11,744
399,81	14,038
400,02	12,541
400,22	15,029
400,43	13,885
400,64	13,389
400,84	12,892
401,05	14,490
401,25	12,084
401,46	14,215
401,67	12,532
401,87	16,403
402,08	7,923
402,29	11,587
402,49	14,524
402,70	14,684
402,90	12,793
403,11	12,749
403,32	12,632
403,52	14,855
403,73	14,213
403,93	19,955
404,14	18,448
404,35	17,207
404,55	10,980
404,76	15,257
404,96	19,832
405,17	20,191
405,38	20,842
405,58	14,358
405,79	18,977
405,99	21,422
406,20	18,413
406,40	15,989
406,61	19,475
406,82	17,183
407,02	18,428
407,23	18,288
407,43	16,036
407,64	16,867
407,85	18,839
408,05	15,743
408,26	26,732
408,46	23,340
408,67	17,174
408,87	19,466
409,08	21,177
409,29	20,476
409,49	23,058
409,70	20,380
409,90	19,478
410,11	20,342
410,31	21,676
410,52	22,052
410,72	20,472
410,93	23,042
411,14	22,967
411,34	19,836
411,55	24,744
411,75	24,311
411,96	22,456
412,16	22,865
412,37	22,273
412,57	26,580
412,78	27,111
412,99	21,606
413,19	25,259
413,40	21,878
413,60	19,872
413,81	21,501
414,01	24,761
414,22	24,452
414,42	23,293
414,63	24,282
414,83	28,098
415,04	26,374
415,24	26,884
415,45	22,344
415,65	27,191
415,86	22,638
416,07	23,506
416,27	27,202
416,48	29,347
416,68	29,607
416,89	22,589
417,09	24,851
417,30	29,804
417,50	30,591
417,71	29,169
417,91	27,261
418,12	21,309
418,32	24,745
418,53	23,945
418,73	26,259
418,94	25,244
419,14	25,598
419,35	24,809
419,55	25,276
419,76	26,417
419,96	26,498
420,17	25,888
420,37	26,984
420,58	28,651
420,78	27,764
420,99	26,764
421,19	26,201
421,40	29,779
421,60	33,282
421,81	26,459
422,01	28,248
422,22	28,037
422,42	32,357
422,63	27,883
422,83	29,924
423,04	31,836
423,24	29,624
423,45	27,907
423,65	29,363
423,86	34,212
424,06	31,210
424,27	28,084
424,47	28,047
424,67	28,483
424,88	28,134
425,08	27,046
425,29	31,196
425,49	30,878
425,70	30,113
425,90	32,578
426,11	29,637
426,31	28,188
426,52	29,525
426,72	30,348
426,93	29,099
427,13	31,935
427,33	27,661
427,54	30,963
427,74	32,426
427,95	32,580
428,15	29,533
428,36	31,302
428,56	30,375
428,77	32,181
428,97	28,632
429,18	32,926
429,38	27,723
429,58	34,290
429,79	34,911
429,99	28,767
430,20	24,697
430,40	34,873
430,61	27,334
430,81	29,693
431,01	31,668
431,22	32,871
431,42	32,516
431,63	28,482
431,83	27,809
432,04	29,690
432,24	31,539
432,44	30,902
432,65	29,248
432,85	29,197
433,06	31,989
433,26	31,586
433,47	29,278
433,67	31,398
433,87	27,702
434,08	28,223
434,28	29,094
434,49	28,025
434,69	30,131
434,89	29,453
435,10	30,639
435,30	32,941
435,51	27,505
435,71	30,692
435,91	29,091
436,12	31,737
436,32	30,485
436,53	28,267
436,73	28,823
436,93	30,458
437,14	26,861
437,34	29,703
437,55	30,035
437,75	31,856
437,95	33,524
438,16	33,342
438,36	31,939
438,57	25,591
438,77	30,315
438,97	34,540
439,18	32,521
439,38	28,453
439,58	27,221
439,79	29,749
439,99	33,010
440,20	31,682
440,40	32,966
440,60	30,725
440,81	31,908
441,01	32,439
441,21	33,972
441,42	30,272
441,62	34,205
441,83	30,315
442,03	31,338
442,23	32,416
442,44	30,074
442,64	31,947
442,84	27,011
443,05	29,930
443,25	28,702
443,45	33,982
443,66	34,098
443,86	25,904
444,06	34,414
444,27	29,973
444,47	30,935
444,67	32,258
444,88	36,474
445,08	31,692
445,28	33,213
445,49	29,429
445,69	28,629
445,90	31,765
446,10	31,679
446,30	33,330
446,51	31,990
446,71	35,238
446,91	37,249
447,12	37,371
447,32	31,479
447,52	33,342
447,72	33,663
447,93	34,539
448,13	31,695
448,33	38,569
448,54	36,038
448,74	27,591
448,94	31,193
449,15	37,378
449,35	25,824
449,55	30,479
449,76	35,231
449,96	31,745
450,16	34,170
450,37	29,831
450,57	31,978
450,77	29,330
450,98	35,366
451,18	33,843
451,38	32,199
451,58	33,141
451,79	34,052
451,99	29,770
452,19	31,778
452,40	34,172
452,60	27,966
452,80	31,839
453,00	31,738
453,21	33,330
453,41	36,195
453,61	30,922
453,82	34,859
454,02	33,343
