Fichero De Datos De SpectraSuite
++++++++++++++++++++++++++++++++++++
Fecha: Wed Apr 22 11:11:33 CEST 2009
Usuario: evoflor
Presente Oscuro Del Espectro: Sí
La Referencia de Presente Del Espectro De: Sí
Muestreados de los componentes de Número de espectros: 1
Espectrómetros: USB4F02353
Tiempo de integración (usec): 500000 (USB4F02353)
Promedio de Espectros Hechos un: 5 (USB4F02353)
El Alisar Del Furgón: 0 (USB4F02353)
Párrafo de de Corregir del la del del de Eléctrica del obscuridad: Sí (USB4F02353)
Estrobo/Lámpara Permitido: No (USB4F02353)
Correct for Detector Non-linearity: No (USB4F02353)
Párrafo de de Corregir del la del del de Externa del luz: No (USB4F02353)
Procesado del espectro de Número de pixeles en: 3648
>>>>> Comienza Data<<<<< Espectral Procesado Del EL
177,79	283,072
178,00	283,072
178,22	283,072
178,44	666,923
178,66	-86,976
178,88	74,560
179,09	-197,489
179,31	119,843
179,53	670,310
179,75	31,355
179,96	299,224
180,18	-128,954
180,40	554,809
180,62	385,703
180,83	-23,926
181,05	-379,390
181,27	-49110,000
181,49	84,978
181,70	313,500
181,92	336,091
182,14	340,392
182,36	102,275
182,58	444,900
182,79	970,580
183,01	16,601
183,23	127,611
183,45	-101,262
183,66	-26,150
183,88	648,882
184,10	-2872,909
184,32	210,668
184,53	100,882
184,75	-57,263
184,97	29,920
185,18	-95,695
185,40	-214,471
185,62	118,071
185,84	93,472
186,05	-40,684
186,27	-89,408
186,49	3238,846
186,71	0,811
186,92	72,443
187,14	-87,622
187,36	113,248
187,58	132,417
187,79	-78,739
188,01	237,264
188,23	-205,994
188,45	57,058
188,66	62,545
188,88	-1449,273
189,10	-1094,100
189,31	-65,375
189,53	-69,690
189,75	246,614
189,97	67,731
190,18	-9,399
190,40	723,000
190,62	-64,761
190,83	-265,389
191,05	113,847
191,27	292,029
191,49	284,183
191,70	-240,433
191,92	-751,780
192,14	-42,815
192,35	607,719
192,57	3691,714
192,79	-52,869
193,01	112,991
193,22	113,888
193,44	-69,983
193,66	71,478
193,87	20,364
194,09	-26,017
194,31	233,858
194,53	928,741
194,74	12,435
194,96	65,102
195,18	126,433
195,39	-243,562
195,61	-97,899
195,83	-112,630
196,04	106,398
196,26	-160,854
196,48	10,586
196,70	145,944
196,91	51,906
197,13	183,570
197,35	-6,728
197,56	517,059
197,78	1333,657
198,00	469,301
198,21	465,583
198,43	-855,872
198,65	75,348
198,86	315,863
199,08	190,525
199,30	52,045
199,51	-180,489
199,73	90,599
199,95	232,946
200,16	220,038
200,38	215,955
200,60	41,812
200,81	346,060
201,03	33,179
201,25	-2156,100
201,46	133,961
201,68	23,384
201,90	1566,136
202,11	-290,496
202,33	236,822
202,55	197,625
202,76	25,160
202,98	80,174
203,20	40,817
203,41	-443,211
203,63	98,715
203,85	-121110,000
204,06	109,768
204,28	-59,783
204,50	96,205
204,71	131,290
204,93	-622,320
205,15	-101,476
205,36	-76,692
205,58	261,823
205,80	-182,844
206,01	21,061
206,23	113,354
206,45	200,681
206,66	101,985
206,88	-14,471
207,10	-41,795
207,31	280,808
207,53	196,886
207,75	95,347
207,96	64,254
208,18	-88,413
208,39	67,672
208,61	2688,857
208,83	-373,752
209,04	168,758
209,26	-77,005
209,48	124,473
209,69	182,274
209,91	527,736
210,13	85,775
210,34	16,489
210,56	132,857
210,77	-960,709
210,99	103,287
211,21	1830,000
211,42	-200,453
211,64	46,656
211,86	237,987
212,07	142,500
212,29	154,329
212,50	100,294
212,72	1,962
212,94	139,151
213,15	108,091
213,37	73,530
213,58	-11,109
213,80	-1561,071
214,02	7282,941
214,23	170,091
214,45	193,475
214,67	-1455,000
214,88	64,732
215,10	-203,715
215,31	-91,245
215,53	-11,114
215,75	49,409
215,96	891,988
216,18	-373,099
216,39	77,065
216,61	201,550
216,83	279,509
217,04	834,944
217,26	-19,500
217,47	103,368
217,69	248,843
217,91	207,448
218,12	-26610,000
218,34	71,800
218,55	242,467
218,77	-32,214
218,99	193,497
219,20	-15,120
219,42	303,979
219,63	67,996
219,85	-90,583
220,06	-254,192
220,28	125,174
220,50	47,295
220,71	84,594
220,93	553,019
221,14	-1328,100
221,36	267,476
221,58	5,618
221,79	-85,932
222,01	617,328
222,22	317,171
222,44	-14,494
222,65	107,462
222,87	519,650
223,09	115,338
223,30	53,614
223,52	116,400
223,73	181,425
223,95	-94,352
224,16	134,660
224,38	310,450
224,60	47,286
224,81	124,385
225,03	123,469
225,24	74,539
225,46	129,419
225,67	-34,596
225,89	92,552
226,10	530,151
226,32	544,080
226,54	18,814
226,75	58,383
226,97	76,848
227,18	110,061
227,40	63,198
227,61	93,188
227,83	28,091
228,04	28,058
228,26	66,648
228,47	47,955
228,69	90,943
228,91	73,793
229,12	18,443
229,34	35,856
229,55	37,445
229,77	11,672
229,98	-12,839
230,20	10,677
230,41	-20,510
230,63	27,683
230,84	-7,277
231,06	23,933
231,27	30,368
231,49	10,607
231,71	15,995
231,92	27,803
232,14	22,286
232,35	90,030
232,57	40,004
232,78	-9,088
233,00	37,404
233,21	17,348
233,43	20,046
233,64	26,583
233,86	48,584
234,07	4,220
234,29	4,542
234,50	1,768
234,72	25,886
234,93	-3,375
235,15	39,060
235,36	15,825
235,58	26,535
235,79	29,077
236,01	0,977
236,22	1,369
236,44	31,966
236,65	7,963
236,87	28,809
237,08	-3,205
237,30	-17,425
237,51	25,850
237,73	-2,382
237,94	8,221
238,16	11,611
238,37	11,564
238,59	19,165
238,80	7,471
239,02	5,661
239,23	14,426
239,45	-1,030
239,66	19,896
239,88	14,850
240,09	13,936
240,31	6,251
240,52	3,503
240,74	11,198
240,95	9,579
241,17	9,998
241,38	8,349
241,60	10,776
241,81	20,717
242,03	7,838
242,24	7,856
242,46	18,631
242,67	1,693
242,89	11,224
243,10	11,943
243,32	10,614
243,53	13,838
243,75	4,818
243,96	0,414
244,18	5,427
244,39	4,224
244,60	9,564
244,82	5,230
245,03	19,039
245,25	6,098
245,46	12,292
245,68	4,677
245,89	11,050
246,11	13,941
246,32	7,261
246,54	5,001
246,75	10,253
246,97	4,419
247,18	12,074
247,39	0,478
247,61	7,402
247,82	3,361
248,04	5,337
248,25	7,191
248,47	6,946
248,68	9,490
248,90	-2,937
249,11	9,693
249,33	17,963
249,54	5,166
249,75	4,981
249,97	4,066
250,18	9,270
250,40	17,980
250,61	-6,364
250,83	1,441
251,04	0,379
251,25	11,809
251,47	-2,034
251,68	0,927
251,90	5,930
252,11	9,604
252,33	4,845
252,54	6,391
252,76	6,248
252,97	1,884
253,18	-4,443
253,40	4,711
253,61	-1,921
253,83	11,628
254,04	11,182
254,25	5,634
254,47	2,759
254,68	2,717
254,90	5,529
255,11	5,965
255,33	3,725
255,54	-0,912
255,75	-1,272
255,97	4,543
256,18	1,610
256,40	5,411
256,61	3,758
256,82	-1,532
257,04	4,238
257,25	1,248
257,47	3,480
257,68	6,584
257,89	9,665
258,11	9,329
258,32	3,410
258,54	4,716
258,75	5,669
258,96	12,205
259,18	7,518
259,39	4,062
259,61	5,953
259,82	4,277
260,03	4,660
260,25	1,804
260,46	0,300
260,68	4,486
260,89	3,143
261,10	2,493
261,32	3,773
261,53	2,208
261,75	9,092
261,96	-0,060
262,17	6,702
262,39	6,284
262,60	0,104
262,81	-0,766
263,03	7,749
263,24	3,886
263,46	1,745
263,67	-0,361
263,88	1,617
264,10	5,634
264,31	1,226
264,52	4,450
264,74	6,398
264,95	1,008
265,17	6,660
265,38	3,800
265,59	6,195
265,81	5,565
266,02	2,452
266,23	1,556
266,45	3,529
266,66	7,806
266,87	7,301
267,09	3,284
267,30	3,899
267,52	5,521
267,73	3,008
267,94	4,668
268,16	8,566
268,37	3,721
268,58	2,507
268,80	0,697
269,01	4,268
269,22	5,690
269,44	7,294
269,65	3,623
269,86	-0,511
270,08	6,781
270,29	2,141
270,50	5,062
270,72	4,006
270,93	0,853
271,14	-0,345
271,36	2,479
271,57	2,699
271,78	3,756
272,00	6,368
272,21	3,583
272,42	3,252
272,64	4,795
272,85	1,304
273,06	1,383
273,28	4,841
273,49	4,900
273,70	7,289
273,92	5,257
274,13	6,670
274,34	1,154
274,56	7,272
274,77	-0,905
274,98	5,984
275,20	5,867
275,41	7,069
275,62	4,538
275,84	4,967
276,05	10,068
276,26	-0,403
276,47	-1,642
276,69	3,081
276,90	3,477
277,11	1,272
277,33	1,442
277,54	4,440
277,75	3,730
277,97	4,548
278,18	2,917
278,39	7,469
278,61	3,686
278,82	5,338
279,03	5,624
279,24	2,919
279,46	3,077
279,67	6,154
279,88	3,788
280,10	7,419
280,31	-1,601
280,52	4,222
280,73	-1,234
280,95	3,102
281,16	11,708
281,37	3,818
281,59	9,004
281,80	10,046
282,01	1,861
282,22	2,011
282,44	-0,868
282,65	6,729
282,86	5,534
283,08	4,642
283,29	3,615
283,50	0,637
283,71	5,458
283,93	3,769
284,14	6,600
284,35	2,098
284,56	5,243
284,78	2,311
284,99	3,880
285,20	6,036
285,42	2,053
285,63	1,514
285,84	-0,259
286,05	0,839
286,27	4,508
286,48	-1,203
286,69	1,303
286,90	0,714
287,12	3,199
287,33	-0,295
287,54	0,710
287,75	3,293
287,97	3,325
288,18	2,243
288,39	-0,447
288,60	2,536
288,82	2,159
289,03	2,569
289,24	2,262
289,45	5,947
289,67	2,318
289,88	0,499
290,09	2,907
290,30	5,406
290,52	1,911
290,73	3,138
290,94	-0,452
291,15	2,682
291,37	4,240
291,58	3,223
291,79	2,951
292,00	3,452
292,21	6,537
292,43	3,123
292,64	2,490
292,85	1,863
293,06	6,707
293,28	1,540
293,49	-0,460
293,70	4,448
293,91	2,341
294,12	4,818
294,34	2,444
294,55	3,200
294,76	2,410
294,97	5,556
295,19	1,062
295,40	4,718
295,61	3,678
295,82	-0,733
296,03	4,020
296,25	-0,037
296,46	2,034
296,67	3,214
296,88	0,116
297,09	2,594
297,31	3,316
297,52	4,710
297,73	1,487
297,94	5,902
298,15	3,568
298,37	1,505
298,58	3,720
298,79	1,691
299,00	1,275
299,21	3,192
299,43	3,515
299,64	6,308
299,85	3,394
300,06	3,268
300,27	1,904
300,49	6,015
300,70	2,474
300,91	2,587
301,12	4,488
301,33	5,313
301,54	4,060
301,76	3,578
301,97	2,030
302,18	1,109
302,39	5,185
302,60	4,633
302,82	2,052
303,03	6,181
303,24	2,849
303,45	1,720
303,66	3,781
303,87	2,650
304,09	6,161
304,30	3,052
304,51	3,591
304,72	3,554
304,93	3,989
305,14	3,779
305,36	1,966
305,57	0,669
305,78	3,701
305,99	0,930
306,20	1,868
306,41	0,063
306,62	0,487
306,84	2,402
307,05	0,308
307,26	1,647
307,47	4,532
307,68	2,565
307,89	2,114
308,11	5,343
308,32	3,194
308,53	3,176
308,74	0,999
308,95	2,182
309,16	3,055
309,37	5,221
309,59	2,048
309,80	3,057
310,01	3,270
310,22	4,227
310,43	0,602
310,64	4,311
310,85	5,318
311,06	1,597
311,28	5,033
311,49	2,241
311,70	6,856
311,91	1,264
312,12	3,235
312,33	4,722
312,54	3,831
312,75	2,548
312,97	2,215
313,18	3,863
313,39	2,424
313,60	2,940
313,81	0,135
314,02	3,891
314,23	3,943
314,44	2,158
314,65	2,818
314,87	2,371
315,08	2,103
315,29	5,927
315,50	3,722
315,71	4,907
315,92	4,906
316,13	3,542
316,34	2,935
316,55	3,313
316,77	0,267
316,98	2,574
317,19	0,280
317,40	5,716
317,61	5,007
317,82	0,229
318,03	1,013
318,24	2,344
318,45	3,621
318,66	1,472
318,87	0,747
319,09	3,250
319,30	2,396
319,51	2,570
319,72	3,877
319,93	4,653
320,14	2,490
320,35	4,167
320,56	2,894
320,77	0,989
320,98	7,875
321,19	2,253
321,40	5,189
321,62	6,158
321,83	3,215
322,04	3,634
322,25	0,230
322,46	7,196
322,67	4,421
322,88	3,219
323,09	2,526
323,30	3,925
323,51	5,626
323,72	5,182
323,93	1,264
324,14	0,816
324,35	-1,901
324,56	0,722
324,77	0,968
324,99	1,434
325,20	0,065
325,41	3,241
325,62	4,248
325,83	3,358
326,04	3,272
326,25	3,723
326,46	2,293
326,67	4,631
326,88	4,459
327,09	2,145
327,30	2,861
327,51	2,211
327,72	2,625
327,93	4,298
328,14	0,503
328,35	2,483
328,56	3,891
328,77	3,184
328,98	2,979
329,19	3,429
329,40	2,631
329,61	1,930
329,82	0,686
330,04	1,676
330,25	1,776
330,46	3,576
330,67	1,075
330,88	1,867
331,09	2,266
331,30	3,225
331,51	3,297
331,72	2,134
331,93	1,994
332,14	0,580
332,35	4,567
332,56	2,810
332,77	5,458
332,98	1,171
333,19	1,119
333,40	4,880
333,61	3,593
333,82	5,348
334,03	3,351
334,24	5,722
334,45	1,946
334,66	5,553
334,87	3,276
335,08	3,380
335,29	1,314
335,50	0,336
335,71	1,300
335,92	5,333
336,13	4,990
336,34	2,834
336,55	6,457
336,76	3,199
336,97	3,400
337,18	-0,091
337,39	2,836
337,60	1,494
337,81	2,607
338,02	1,878
338,23	3,020
338,44	4,794
338,65	2,596
338,86	3,848
339,07	1,905
339,28	5,699
339,49	4,992
339,70	2,002
339,91	0,226
340,11	5,978
340,32	1,589
340,53	0,631
340,74	1,406
340,95	2,065
341,16	6,431
341,37	4,172
341,58	1,898
341,79	3,504
342,00	3,463
342,21	2,690
342,42	-0,039
342,63	1,732
342,84	-0,918
343,05	1,236
343,26	4,258
343,47	1,202
343,68	1,229
343,89	3,305
344,10	4,789
344,31	5,898
344,52	0,963
344,73	2,399
344,94	1,403
345,14	1,229
345,35	3,653
345,56	2,391
345,77	1,784
345,98	4,625
346,19	0,956
346,40	2,738
346,61	2,412
346,82	1,480
347,03	3,282
347,24	5,709
347,45	1,976
347,66	6,339
347,87	3,183
348,08	5,394
348,28	0,701
348,49	2,306
348,70	3,913
348,91	4,022
349,12	0,729
349,33	17,159
349,54	2,407
349,75	5,427
349,96	2,091
350,17	1,674
350,38	1,478
350,59	5,579
350,80	4,202
351,00	1,744
351,21	7,137
351,42	3,880
351,63	-0,491
351,84	2,681
352,05	5,301
352,26	2,061
352,47	0,892
352,68	6,852
352,89	5,865
353,09	4,121
353,30	1,251
353,51	3,792
353,72	5,427
353,93	5,481
354,14	-0,568
354,35	0,588
354,56	2,993
354,77	0,218
354,98	-2,166
355,18	6,041
355,39	7,072
355,60	4,578
355,81	2,187
356,02	2,725
356,23	2,508
356,44	2,626
356,65	2,828
356,85	8,321
357,06	3,620
357,27	2,670
357,48	4,575
357,69	4,762
357,90	2,444
358,11	2,570
358,32	3,179
358,52	6,562
358,73	0,785
358,94	2,441
359,15	5,101
359,36	5,445
359,57	1,443
359,78	4,400
359,98	1,518
360,19	-0,465
360,40	5,363
360,61	7,605
360,82	1,364
361,03	7,082
361,24	3,034
361,44	2,195
361,65	2,348
361,86	4,255
362,07	5,489
362,28	1,625
362,49	0,565
362,70	0,372
362,90	4,927
363,11	0,224
363,32	1,004
363,53	5,647
363,74	2,882
363,95	4,680
364,15	4,525
364,36	5,101
364,57	2,289
364,78	0,522
364,99	2,566
365,20	3,898
365,40	4,701
365,61	-0,591
365,82	-0,161
366,03	1,400
366,24	4,036
366,45	4,049
366,65	2,899
366,86	4,373
367,07	2,094
367,28	2,517
367,49	3,936
367,69	5,255
367,90	2,889
368,11	2,107
368,32	-0,045
368,53	2,591
368,73	4,795
368,94	0,527
369,15	1,359
369,36	1,274
369,57	2,456
369,78	-0,888
369,98	3,815
370,19	8,953
370,40	5,013
370,61	3,716
370,82	3,999
371,02	2,970
371,23	6,359
371,44	4,627
371,65	2,047
371,85	4,542
372,06	3,487
372,27	2,450
372,48	1,844
372,69	3,678
372,89	3,798
373,10	3,824
373,31	1,572
373,52	4,214
373,73	6,800
373,93	3,622
374,14	1,177
374,35	4,047
374,56	6,345
374,76	4,070
374,97	1,896
375,18	4,512
375,39	4,133
375,60	6,933
375,80	4,495
376,01	2,112
376,22	6,703
376,43	1,864
376,63	3,028
376,84	2,362
377,05	6,785
377,26	0,914
377,46	-2,250
377,67	3,803
377,88	4,572
378,09	2,778
378,29	-2,974
378,50	3,635
378,71	3,263
378,92	3,427
379,12	2,539
379,33	3,368
379,54	3,162
379,75	3,468
379,95	1,353
380,16	4,855
380,37	4,463
380,58	5,325
380,78	4,565
380,99	3,223
381,20	1,210
381,41	4,533
381,61	4,125
381,82	4,832
382,03	5,086
382,24	4,696
382,44	2,235
382,65	0,752
382,86	5,123
383,06	2,008
383,27	2,119
383,48	2,771
383,69	4,247
383,89	4,728
384,10	3,899
384,31	0,611
384,51	4,004
384,72	1,612
384,93	4,491
385,14	4,143
385,34	3,098
385,55	3,325
385,76	4,927
385,96	5,002
386,17	4,111
386,38	5,319
386,59	6,271
386,79	1,232
387,00	7,038
387,21	4,826
387,41	3,390
387,62	0,480
387,83	6,865
388,03	1,456
388,24	2,251
388,45	4,099
388,66	6,072
388,86	0,757
389,07	-1,842
389,28	7,851
389,48	6,780
389,69	1,881
389,90	1,723
390,10	6,734
390,31	3,886
390,52	-2,039
390,72	4,032
390,93	0,881
391,14	2,809
391,34	3,926
391,55	3,581
391,76	5,283
391,96	2,685
392,17	6,093
392,38	6,331
392,58	5,238
392,79	2,465
393,00	-0,482
393,20	2,862
393,41	1,137
393,62	3,098
393,82	2,475
394,03	0,987
394,24	6,884
394,44	5,861
394,65	4,851
394,86	3,853
395,06	1,528
395,27	2,948
395,48	0,019
395,68	3,585
395,89	5,312
396,10	4,633
396,30	2,868
396,51	4,424
396,72	6,757
396,92	-1,533
397,13	4,272
397,34	1,218
397,54	2,105
397,75	0,404
397,95	1,746
398,16	6,965
398,37	3,590
398,57	2,933
398,78	4,272
398,99	6,055
399,19	3,362
399,40	3,681
399,60	3,020
399,81	2,455
400,02	3,287
400,22	4,492
400,43	4,036
400,64	5,146
400,84	3,037
401,05	4,571
401,25	4,707
401,46	3,343
401,67	2,212
401,87	0,517
402,08	3,166
402,29	0,326
402,49	3,936
402,70	8,411
402,90	1,790
403,11	1,643
403,32	3,827
403,52	1,632
403,73	4,139
403,93	3,596
404,14	5,907
404,35	5,334
404,55	1,647
404,76	3,035
404,96	4,672
405,17	6,277
405,38	7,231
405,58	2,394
405,79	3,175
405,99	7,224
406,20	2,791
406,40	0,205
406,61	4,273
406,82	0,674
407,02	5,545
407,23	5,038
407,43	2,059
407,64	1,468
407,85	-0,698
408,05	-1,736
408,26	11,123
408,46	7,846
408,67	-0,993
408,87	3,299
409,08	3,578
409,29	5,445
409,49	4,322
409,70	6,043
409,90	5,070
410,11	2,686
410,31	6,971
410,52	0,403
410,72	1,871
410,93	6,434
411,14	2,426
411,34	1,311
411,55	6,280
411,75	4,618
411,96	1,269
412,16	4,027
412,37	3,035
412,57	4,579
412,78	4,138
412,99	1,363
413,19	0,467
413,40	5,164
413,60	-0,892
413,81	0,683
414,01	2,802
414,22	1,881
414,42	-2,834
414,63	1,531
414,83	5,568
415,04	2,078
415,24	3,237
415,45	3,670
415,65	6,808
415,86	6,928
416,07	3,347
416,27	5,423
416,48	8,840
416,68	7,322
416,89	3,173
417,09	4,804
417,30	6,239
417,50	3,285
417,71	5,970
417,91	7,384
418,12	2,661
418,32	3,932
418,53	0,903
418,73	1,737
418,94	2,606
419,14	2,851
419,35	3,574
419,55	4,667
419,76	3,849
419,96	1,692
420,17	5,506
420,37	-3,667
420,58	4,452
420,78	6,350
420,99	5,095
421,19	4,419
421,40	4,699
421,60	5,848
421,81	1,698
422,01	3,650
422,22	3,067
422,42	3,119
422,63	6,062
422,83	4,065
423,04	7,537
423,24	8,936
423,45	0,781
423,65	6,194
423,86	7,928
424,06	5,156
424,27	2,482
424,47	1,065
424,67	-0,807
424,88	5,458
425,08	6,303
425,29	9,584
425,49	4,165
425,70	-4,378
425,90	4,601
426,11	5,918
426,31	4,417
426,52	2,918
426,72	1,056
426,93	5,657
427,13	7,976
427,33	3,861
427,54	6,211
427,74	4,878
427,95	8,881
428,15	0,742
428,36	8,154
428,56	6,388
428,77	6,845
428,97	5,967
429,18	2,481
429,38	3,113
429,58	5,642
429,79	4,591
429,99	4,375
430,20	0,883
430,40	6,533
430,61	1,983
430,81	0,539
431,01	6,826
431,22	8,992
431,42	8,879
431,63	2,608
431,83	4,752
432,04	5,886
432,24	7,640
432,44	4,262
432,65	2,482
432,85	1,382
433,06	7,635
433,26	5,672
433,47	3,585
433,67	2,980
433,87	4,362
434,08	4,601
434,28	7,883
434,49	4,967
434,69	7,371
434,89	1,930
435,10	7,660
435,30	6,346
435,51	1,881
435,71	3,170
435,91	6,593
436,12	1,975
436,32	3,547
436,53	4,552
436,73	4,953
436,93	4,757
437,14	6,198
437,34	5,622
437,55	2,790
437,75	4,765
437,95	2,892
438,16	5,362
438,36	0,915
438,57	2,098
438,77	4,803
438,97	5,576
439,18	6,159
439,38	2,146
439,58	5,921
439,79	2,359
439,99	5,130
440,20	7,088
440,40	8,097
440,60	4,246
440,81	7,041
441,01	2,765
441,21	11,544
441,42	5,943
441,62	6,313
441,83	6,579
442,03	0,443
442,23	5,392
442,44	7,253
442,64	5,748
442,84	1,309
443,05	7,386
443,25	2,968
443,45	5,376
443,66	5,504
443,86	4,765
444,06	1,849
444,27	7,113
444,47	2,709
444,67	5,579
444,88	7,374
445,08	8,836
445,28	5,735
445,49	0,956
445,69	4,488
445,90	8,820
446,10	10,760
446,30	8,787
446,51	5,783
446,71	11,171
446,91	10,869
447,12	10,559
447,32	5,825
447,52	9,135
447,72	8,546
447,93	8,932
448,13	3,869
448,33	9,999
448,54	9,504
448,74	5,131
448,94	10,547
449,15	10,646
449,35	6,428
449,55	5,884
449,76	10,102
449,96	9,930
450,16	10,301
450,37	2,993
450,57	7,914
450,77	6,181
450,98	8,170
451,18	8,706
451,38	7,146
451,58	9,284
451,79	11,680
451,99	13,275
452,19	9,137
452,40	11,264
452,60	4,636
452,80	8,139
453,00	10,323
453,21	7,696
453,41	7,842
453,61	4,247
453,82	6,768
454,02	5,437
454,22	9,133
454,42	12,805
454,63	9,173
454,83	8,704
455,03	9,166
455,24	9,972
455,44	6,387
455,64	8,901
455,84	5,012
456,05	7,033
456,25	7,493
456,45	11,129
456,65	5,732
456,86	11,492
457,06	13,479
457,26	9,022
