Fichero De Datos De SpectraSuite
++++++++++++++++++++++++++++++++++++
Fecha: Wed Apr 22 11:15:38 CEST 2009
Usuario: evoflor
Presente Oscuro Del Espectro: Sí
La Referencia de Presente Del Espectro De: Sí
Muestreados de los componentes de Número de espectros: 1
Espectrómetros: USB4F02353
Tiempo de integración (usec): 500000 (USB4F02353)
Promedio de Espectros Hechos un: 5 (USB4F02353)
El Alisar Del Furgón: 0 (USB4F02353)
Párrafo de de Corregir del la del del de Eléctrica del obscuridad: Sí (USB4F02353)
Estrobo/Lámpara Permitido: No (USB4F02353)
Correct for Detector Non-linearity: No (USB4F02353)
Párrafo de de Corregir del la del del de Externa del luz: No (USB4F02353)
Procesado del espectro de Número de pixeles en: 3648
>>>>> Comienza Data<<<<< Espectral Procesado Del EL
177,79	167,497
178,00	167,497
178,22	167,497
178,44	1508,571
178,66	-77,666
178,88	136,417
179,09	-105,191
179,31	135,339
179,53	605,944
179,75	161,205
179,96	826,034
180,18	-170,215
180,40	399,745
180,62	375,915
180,83	-288,347
181,05	-685,610
181,27	-138120,000
181,49	20,609
181,70	60,462
181,92	623,452
182,14	543,434
182,36	121,377
182,58	-508,200
182,79	930,000
183,01	-22,823
183,23	184,896
183,45	-197,908
183,66	-57,611
183,88	272,471
184,10	-3542,182
184,32	292,871
184,53	99,451
184,75	-158,533
184,97	32,398
185,18	-146,278
185,40	-452,019
185,62	111,551
185,84	95,240
186,05	188,108
186,27	-50,456
186,49	-18,462
186,71	-73,736
186,92	45,127
187,14	-84,899
187,36	144,148
187,58	98,631
187,79	-78,602
188,01	253,818
188,23	-318,239
188,45	74,566
188,66	17,946
188,88	-2167,636
189,10	-931,200
189,31	-108,225
189,53	-5,803
189,75	455,045
189,97	-102,231
190,18	129,270
190,40	325,412
190,62	-112,141
190,83	-132,140
191,05	24,992
191,27	14,057
191,49	116,881
191,70	-110,192
191,92	-156,102
192,14	-18,757
192,35	418,886
192,57	-785,143
192,79	58,715
193,01	39,456
193,22	94,311
193,44	-13,003
193,66	71,412
193,87	-8,737
194,09	50,468
194,31	122,982
194,53	223,217
194,74	-32,710
194,96	16,650
195,18	147,162
195,39	-67,599
195,61	-120,936
195,83	-182,870
196,04	98,549
196,26	101,910
196,48	-63,367
196,70	186,918
196,91	134,943
197,13	37,519
197,35	40,169
197,56	533,498
197,78	1682,239
198,00	739,301
198,21	460,777
198,43	-970,465
198,65	112,689
198,86	98,633
199,08	187,279
199,30	170,283
199,51	-212,443
199,73	123,852
199,95	226,040
200,16	320,077
200,38	190,105
200,60	154,665
200,81	311,178
201,03	40,272
201,25	-1363,200
201,46	187,434
201,68	-2,997
201,90	2832,273
202,11	-351,985
202,33	180,108
202,55	567,750
202,76	-75,652
202,98	177,073
203,20	-283,269
203,41	-130,105
203,63	142,354
203,85	-71520,000
204,06	-38,701
204,28	1,157
204,50	132,995
204,71	348,975
204,93	-111,840
205,15	191,024
205,36	-136,750
205,58	215,010
205,80	-36,172
206,01	-9,576
206,23	118,078
206,45	192,828
206,66	148,616
206,88	-156,504
207,10	295,500
207,31	238,967
207,53	260,914
207,75	71,555
207,96	594,179
208,18	-80,580
208,39	37,638
208,61	3097,714
208,83	-237,064
209,04	182,056
209,26	-26,820
209,48	113,559
209,69	173,419
209,91	335,878
210,13	84,374
210,34	-66,538
210,56	95,825
210,77	-1371,024
210,99	49,573
211,21	3783,529
211,42	-40,029
211,64	-25,856
211,86	312,962
212,07	225,607
212,29	176,581
212,50	56,506
212,72	216,231
212,94	26,375
213,15	82,693
213,37	114,757
213,58	-150,599
213,80	-1043,571
214,02	1718,824
214,23	160,073
214,45	340,721
214,67	-1322,195
214,88	31,812
215,10	-110,070
215,31	124,716
215,53	-33,818
215,75	39,861
215,96	1724,348
216,18	-6,761
216,39	129,513
216,61	114,891
216,83	407,679
217,04	1106,966
217,26	113,903
217,47	170,976
217,69	281,780
217,91	114,897
218,12	-36420,000
218,34	120,206
218,55	502,440
218,77	111,767
218,99	122,164
219,20	-78,770
219,42	233,872
219,63	70,107
219,85	-24,300
220,06	-19,154
220,28	216,701
220,50	139,343
220,71	104,540
220,93	3590,943
221,14	-1561,200
221,36	143,748
221,58	79,418
221,79	53,317
222,01	585,517
222,22	517,895
222,44	-470,562
222,65	117,084
222,87	34,406
223,09	112,169
223,30	80,904
223,52	83,824
223,73	88,494
223,95	-28,563
224,16	99,216
224,38	120,427
224,60	13,624
224,81	34,385
225,03	129,317
225,24	140,293
225,46	44,053
225,67	31,820
225,89	25,288
226,10	391,627
226,32	1090,560
226,54	6,231
226,75	-10,872
226,97	92,082
227,18	112,049
227,40	3,083
227,61	71,572
227,83	-14,190
228,04	185,577
228,26	75,740
228,47	49,206
228,69	107,158
228,91	85,323
229,12	94,562
229,34	44,670
229,55	78,121
229,77	-3,258
229,98	-24,058
230,20	28,447
230,41	-2,105
230,63	23,944
230,84	34,919
231,06	39,964
231,27	-20,057
231,49	19,782
231,71	22,278
231,92	28,553
232,14	16,539
232,35	37,280
232,57	71,123
232,78	3,723
233,00	22,921
233,21	13,093
233,43	-1,851
233,64	25,560
233,86	25,393
234,07	22,627
234,29	15,401
234,50	13,664
234,72	32,085
234,93	-1,547
235,15	15,849
235,36	26,903
235,58	4,789
235,79	34,041
236,01	18,507
236,22	16,371
236,44	38,222
236,65	14,833
236,87	22,246
237,08	6,639
237,30	-14,079
237,51	17,724
237,73	-7,724
237,94	7,674
238,16	14,911
238,37	3,717
238,59	15,791
238,80	7,969
239,02	4,510
239,23	19,889
239,45	-14,841
239,66	21,016
239,88	25,355
240,09	12,604
240,31	-2,192
240,52	2,152
240,74	11,187
240,95	3,501
241,17	2,235
241,38	-5,549
241,60	12,380
241,81	25,262
242,03	6,624
242,24	10,828
242,46	14,385
242,67	1,371
242,89	12,058
243,10	12,952
243,32	14,062
243,53	10,152
243,75	6,060
243,96	4,716
244,18	8,550
244,39	7,005
244,60	8,577
244,82	-0,446
245,03	13,047
245,25	10,777
245,46	16,803
245,68	0,236
245,89	12,596
246,11	5,136
246,32	8,050
246,54	3,786
246,75	8,884
246,97	10,379
247,18	13,338
247,39	2,241
247,61	7,517
247,82	0,790
248,04	7,307
248,25	3,691
248,47	10,915
248,68	10,646
248,90	-3,894
249,11	10,585
249,33	11,446
249,54	5,328
249,75	7,038
249,97	5,017
250,18	19,086
250,40	10,367
250,61	-3,743
250,83	-0,885
251,04	2,102
251,25	4,279
251,47	-0,027
251,68	6,987
251,90	6,706
252,11	8,948
252,33	1,564
252,54	3,906
252,76	7,810
252,97	2,927
253,18	3,959
253,40	3,291
253,61	1,400
253,83	8,978
254,04	11,133
254,25	5,811
254,47	3,803
254,68	2,669
254,90	-0,734
255,11	4,165
255,33	5,181
255,54	9,079
255,75	2,929
255,97	7,196
256,18	3,587
256,40	6,741
256,61	4,226
256,82	0,571
257,04	8,533
257,25	-0,777
257,47	4,011
257,68	2,164
257,89	2,452
258,11	9,812
258,32	4,409
258,54	4,544
258,75	6,001
258,96	11,090
259,18	3,957
259,39	1,352
259,61	9,957
259,82	2,438
260,03	7,986
260,25	4,228
260,46	3,548
260,68	0,019
260,89	2,059
261,10	3,865
261,32	3,608
261,53	5,717
261,75	6,731
261,96	-0,979
262,17	8,018
262,39	9,245
262,60	1,036
262,81	-2,057
263,03	11,051
263,24	6,713
263,46	-1,252
263,67	2,428
263,88	2,430
264,10	5,592
264,31	0,019
264,52	8,269
264,74	5,058
264,95	4,153
265,17	4,681
265,38	3,478
265,59	7,265
265,81	7,328
266,02	-2,092
266,23	4,966
266,45	6,646
266,66	10,839
266,87	7,298
267,09	2,843
267,30	8,221
267,52	6,871
267,73	5,197
267,94	3,586
268,16	4,868
268,37	5,622
268,58	5,249
268,80	4,187
269,01	3,729
269,22	4,114
269,44	4,708
269,65	4,807
269,86	3,744
270,08	6,058
270,29	0,093
270,50	3,862
270,72	9,068
270,93	0,623
271,14	0,017
271,36	-0,570
271,57	5,372
271,78	4,922
272,00	6,400
272,21	4,706
272,42	3,176
272,64	6,455
272,85	-0,349
273,06	2,400
273,28	0,779
273,49	5,543
273,70	4,600
273,92	5,078
274,13	8,478
274,34	1,004
274,56	3,969
274,77	1,120
274,98	7,263
275,20	6,470
275,41	6,206
275,62	4,674
275,84	4,157
276,05	6,073
276,26	0,193
276,47	-1,327
276,69	3,150
276,90	3,937
277,11	2,173
277,33	6,052
277,54	5,934
277,75	4,242
277,97	1,766
278,18	3,727
278,39	6,306
278,61	2,356
278,82	4,994
279,03	4,941
279,24	3,796
279,46	0,182
279,67	9,760
279,88	3,280
280,10	6,623
280,31	-2,835
280,52	5,830
280,73	0,312
280,95	3,635
281,16	5,924
281,37	5,347
281,59	5,833
281,80	8,486
282,01	3,063
282,22	2,476
282,44	1,154
282,65	5,650
282,86	8,458
283,08	1,109
283,29	4,728
283,50	2,733
283,71	8,389
283,93	4,711
284,14	7,786
284,35	2,095
284,56	5,769
284,78	2,797
284,99	3,665
285,20	3,590
285,42	3,418
285,63	4,447
285,84	1,307
286,05	3,848
286,27	6,108
286,48	1,561
286,69	2,849
286,90	4,081
287,12	4,314
287,33	2,673
287,54	1,835
287,75	3,556
287,97	2,892
288,18	1,433
288,39	0,535
288,60	3,735
288,82	2,804
289,03	1,678
289,24	3,727
289,45	7,454
289,67	3,384
289,88	1,490
290,09	3,641
290,30	5,647
290,52	2,450
290,73	4,077
290,94	3,420
291,15	5,372
291,37	5,799
291,58	3,856
291,79	4,710
292,00	5,422
292,21	4,282
292,43	3,066
292,64	1,910
292,85	1,512
293,06	3,636
293,28	2,352
293,49	0,461
293,70	4,909
293,91	2,106
294,12	2,285
294,34	3,670
294,55	6,780
294,76	4,435
294,97	5,698
295,19	0,039
295,40	4,196
295,61	5,888
295,82	1,997
296,03	3,507
296,25	5,551
296,46	2,568
296,67	2,859
296,88	-0,368
297,09	5,736
297,31	3,289
297,52	3,824
297,73	2,343
297,94	7,274
298,15	2,074
298,37	3,490
298,58	5,295
298,79	6,030
299,00	2,306
299,21	2,610
299,43	0,960
299,64	5,795
299,85	3,244
300,06	1,025
300,27	3,996
300,49	7,038
300,70	0,944
300,91	3,345
301,12	1,901
301,33	6,288
301,54	2,618
301,76	3,673
301,97	2,519
302,18	2,748
302,39	5,862
302,60	8,101
302,82	0,454
303,03	6,034
303,24	2,896
303,45	4,771
303,66	5,200
303,87	4,295
304,09	5,225
304,30	0,862
304,51	1,380
304,72	0,795
304,93	4,999
305,14	4,325
305,36	2,695
305,57	-0,134
305,78	4,041
305,99	2,244
306,20	2,572
306,41	0,646
306,62	2,051
306,84	2,259
307,05	2,165
307,26	2,805
307,47	6,125
307,68	4,700
307,89	3,528
308,11	3,704
308,32	1,318
308,53	3,721
308,74	-0,506
308,95	2,545
309,16	3,931
309,37	5,360
309,59	2,095
309,80	6,320
310,01	5,366
310,22	6,738
310,43	2,085
310,64	4,237
310,85	3,491
311,06	3,028
311,28	4,233
311,49	4,127
311,70	6,588
311,91	2,416
312,12	1,646
312,33	3,453
312,54	5,714
312,75	1,701
312,97	2,337
313,18	6,136
313,39	2,227
313,60	3,297
313,81	6,046
314,02	4,828
314,23	4,214
314,44	1,650
314,65	-0,714
314,87	1,291
315,08	3,937
315,29	5,180
315,50	2,509
315,71	6,176
315,92	5,901
316,13	5,305
316,34	5,033
316,55	1,869
316,77	4,376
316,98	2,894
317,19	3,105
317,40	4,221
317,61	3,374
317,82	2,839
318,03	2,838
318,24	0,638
318,45	4,756
318,66	1,834
318,87	1,697
319,09	6,218
319,30	3,658
319,51	4,091
319,72	4,494
319,93	4,501
320,14	6,973
320,35	4,780
320,56	1,129
320,77	0,256
320,98	5,354
321,19	5,982
321,40	3,324
321,62	4,833
321,83	4,562
322,04	2,753
322,25	4,925
322,46	7,723
322,67	6,540
322,88	3,815
323,09	2,217
323,30	5,654
323,51	6,071
323,72	7,448
323,93	2,078
324,14	4,253
324,35	0,702
324,56	-0,494
324,77	2,507
324,99	2,657
325,20	-1,203
325,41	3,856
325,62	4,076
325,83	1,789
326,04	1,937
326,25	2,715
326,46	2,878
326,67	6,293
326,88	5,182
327,09	3,245
327,30	1,758
327,51	6,260
327,72	4,659
327,93	4,564
328,14	0,475
328,35	5,101
328,56	4,964
328,77	3,826
328,98	3,712
329,19	5,590
329,40	4,141
329,61	2,180
329,82	2,051
330,04	2,622
330,25	2,562
330,46	3,346
330,67	2,134
330,88	2,647
331,09	3,560
331,30	3,355
331,51	3,189
331,72	3,815
331,93	3,759
332,14	0,501
332,35	5,353
332,56	5,123
332,77	5,298
332,98	0,354
333,19	2,273
333,40	4,296
333,61	3,748
333,82	5,629
334,03	3,402
334,24	5,772
334,45	2,184
334,66	7,155
334,87	4,466
335,08	1,788
335,29	2,080
335,50	1,485
335,71	3,368
335,92	5,304
336,13	5,223
336,34	0,013
336,55	5,792
336,76	4,948
336,97	5,038
337,18	3,018
337,39	3,670
337,60	4,449
337,81	4,010
338,02	4,558
338,23	4,534
338,44	2,954
338,65	4,753
338,86	7,035
339,07	1,476
339,28	5,906
339,49	2,809
339,70	3,623
339,91	4,207
340,11	6,432
340,32	2,645
340,53	1,326
340,74	0,948
340,95	2,690
341,16	5,862
341,37	4,033
341,58	-1,509
341,79	3,446
342,00	5,713
342,21	3,369
342,42	1,945
342,63	2,629
342,84	0,183
343,05	5,192
343,26	5,002
343,47	3,825
343,68	3,792
343,89	2,864
344,10	6,556
344,31	5,211
344,52	4,219
344,73	1,981
344,94	4,479
345,14	3,514
345,35	5,262
345,56	3,356
345,77	1,753
345,98	3,333
346,19	5,510
346,40	4,453
346,61	3,580
346,82	2,125
347,03	0,886
347,24	4,696
347,45	1,133
347,66	9,225
347,87	3,907
348,08	6,099
348,28	1,040
348,49	4,876
348,70	6,868
348,91	3,619
349,12	-0,500
349,33	17,360
349,54	1,418
349,75	5,310
349,96	4,682
350,17	4,702
350,38	2,294
350,59	8,762
350,80	3,804
351,00	6,062
351,21	8,147
351,42	3,053
351,63	-0,269
351,84	3,738
352,05	2,841
352,26	4,833
352,47	3,342
352,68	4,314
352,89	8,364
353,09	7,001
353,30	1,128
353,51	4,178
353,72	6,798
353,93	7,320
354,14	-0,047
354,35	3,770
354,56	3,953
354,77	5,054
354,98	0,642
355,18	4,128
355,39	7,806
355,60	2,236
355,81	2,537
356,02	4,497
356,23	3,171
356,44	4,302
356,65	3,782
356,85	12,149
357,06	7,221
357,27	6,378
357,48	1,633
357,69	4,435
357,90	4,171
358,11	0,797
358,32	4,131
358,52	6,266
358,73	3,027
358,94	5,280
359,15	5,911
359,36	4,992
359,57	1,228
359,78	4,914
359,98	5,928
360,19	2,695
360,40	4,979
360,61	8,436
360,82	0,810
361,03	6,842
361,24	6,255
361,44	3,886
361,65	5,888
361,86	4,374
362,07	3,058
362,28	4,658
362,49	1,201
362,70	5,997
362,90	4,640
363,11	1,823
363,32	2,511
363,53	7,169
363,74	8,376
363,95	3,845
364,15	6,025
364,36	8,079
364,57	4,700
364,78	5,987
364,99	3,002
365,20	6,177
365,40	5,321
365,61	4,438
365,82	6,305
366,03	3,531
366,24	5,740
366,45	6,657
366,65	3,220
366,86	3,548
367,07	5,312
367,28	4,398
367,49	4,468
367,69	5,635
367,90	4,933
368,11	4,654
368,32	4,011
368,53	6,641
368,73	5,701
368,94	3,494
369,15	3,398
369,36	7,020
369,57	3,054
369,78	0,951
369,98	6,645
370,19	6,665
370,40	3,907
370,61	2,034
370,82	3,692
371,02	4,676
371,23	8,267
371,44	4,560
371,65	7,570
371,85	6,967
372,06	5,202
372,27	3,524
372,48	8,051
372,69	3,424
372,89	3,502
373,10	2,595
373,31	6,002
373,52	6,204
373,73	9,584
373,93	3,955
374,14	5,245
374,35	5,753
374,56	6,920
374,76	6,799
374,97	3,239
375,18	6,677
375,39	6,481
375,60	7,180
375,80	6,669
376,01	5,252
376,22	6,638
376,43	5,972
376,63	4,546
376,84	6,861
377,05	9,859
377,26	4,524
377,46	2,755
377,67	3,415
377,88	4,422
378,09	5,229
378,29	1,804
378,50	6,123
378,71	7,081
378,92	2,006
379,12	5,310
379,33	1,943
379,54	7,736
379,75	4,406
379,95	5,575
380,16	7,700
380,37	10,354
380,58	6,477
380,78	8,704
380,99	5,601
381,20	6,587
381,41	7,583
381,61	7,272
381,82	4,893
382,03	5,998
382,24	7,224
382,44	8,821
382,65	7,580
382,86	9,230
383,06	5,783
383,27	9,107
383,48	3,124
383,69	8,607
383,89	8,593
384,10	7,875
384,31	3,798
384,51	9,238
384,72	7,761
384,93	4,356
385,14	8,427
385,34	8,806
385,55	6,104
385,76	7,194
385,96	10,154
386,17	7,705
386,38	11,965
386,59	10,794
386,79	5,690
387,00	10,822
387,21	10,864
387,41	10,163
387,62	5,533
387,83	11,795
388,03	7,303
388,24	4,379
388,45	7,367
388,66	10,003
388,86	10,553
389,07	8,206
389,28	12,035
389,48	5,330
389,69	10,898
389,90	7,882
390,10	12,046
390,31	14,103
390,52	5,027
390,72	9,640
390,93	11,617
391,14	9,133
391,34	10,041
391,55	10,117
391,76	12,810
391,96	12,158
392,17	10,693
392,38	14,211
392,58	11,098
392,79	10,704
393,00	8,728
393,20	9,450
393,41	12,516
393,62	11,120
393,82	10,570
394,03	10,196
394,24	11,327
394,44	14,362
394,65	13,494
394,86	12,971
395,06	15,638
395,27	12,777
395,48	13,945
395,68	15,825
395,89	12,802
396,10	16,363
396,30	12,745
396,51	12,928
396,72	9,901
396,92	13,410
397,13	20,081
397,34	13,407
397,54	16,363
397,75	12,825
397,95	14,064
398,16	14,943
398,37	14,807
398,57	16,879
398,78	17,285
398,99	19,332
399,19	18,829
399,40	17,584
399,60	15,421
399,81	17,135
400,02	16,256
400,22	19,716
400,43	16,616
400,64	18,225
400,84	14,978
401,05	19,775
401,25	18,593
401,46	17,344
401,67	20,415
401,87	20,162
402,08	16,478
402,29	18,681
402,49	18,517
402,70	21,414
402,90	15,056
403,11	18,042
403,32	21,526
403,52	20,868
403,73	18,935
403,93	22,575
404,14	24,442
404,35	22,367
404,55	16,424
404,76	20,922
404,96	19,437
405,17	24,394
405,38	25,626
405,58	21,700
405,79	24,501
405,99	23,508
406,20	24,204
406,40	22,502
406,61	24,187
406,82	19,226
407,02	23,700
407,23	20,894
407,43	24,446
407,64	21,581
407,85	24,624
408,05	21,689
408,26	29,500
408,46	25,478
408,67	22,951
408,87	24,857
409,08	26,787
409,29	30,405
409,49	30,238
409,70	27,631
409,90	25,339
410,11	24,760
410,31	29,383
410,52	23,003
410,72	25,599
410,93	27,534
411,14	24,253
411,34	21,997
411,55	24,209
411,75	29,792
411,96	25,571
412,16	26,672
412,37	25,017
412,57	30,053
412,78	29,373
412,99	26,335
413,19	30,616
413,40	26,277
413,60	24,840
413,81	27,268
414,01	30,687
414,22	27,526
414,42	29,384
414,63	28,218
414,83	28,423
415,04	27,945
415,24	29,076
415,45	27,135
415,65	31,603
415,86	30,999
416,07	27,271
416,27	27,792
416,48	32,415
416,68	29,724
416,89	26,265
417,09	30,831
417,30	32,620
417,50	30,455
417,71	31,624
417,91	33,938
418,12	23,364
418,32	32,470
418,53	29,055
418,73	26,232
418,94	31,895
419,14	32,755
419,35	27,610
419,55	32,434
419,76	32,170
419,96	30,723
420,17	28,830
420,37	30,716
420,58	36,518
420,78	31,557
420,99	30,235
421,19	30,781
421,40	31,414
421,60	32,644
421,81	31,437
422,01	30,363
422,22	27,688
422,42	38,203
422,63	31,568
422,83	32,096
423,04	30,914
423,24	36,572
423,45	29,982
423,65	32,684
423,86	36,691
424,06	35,937
424,27	33,166
424,47	30,406
424,67	29,812
424,88	30,391
425,08	29,245
425,29	36,834
425,49	30,888
425,70	29,004
425,90	34,369
426,11	31,979
426,31	31,009
426,52	32,505
426,72	34,313
426,93	30,382
427,13	36,925
427,33	32,140
427,54	34,610
427,74	37,117
427,95	36,812
428,15	33,534
428,36	31,916
428,56	29,760
428,77	35,305
428,97	34,691
429,18	32,115
429,38	31,485
429,58	37,110
429,79	34,988
429,99	32,302
430,20	26,364
430,40	39,682
430,61	31,268
430,81	28,317
431,01	35,665
431,22	37,178
431,42	32,231
431,63	30,058
431,83	34,534
432,04	32,103
432,24	34,358
432,44	30,170
432,65	30,992
432,85	34,281
433,06	34,834
433,26	28,964
433,47	30,509
433,67	30,119
433,87	31,205
434,08	29,476
434,28	30,552
434,49	32,481
434,69	33,881
434,89	29,461
435,10	30,549
435,30	38,952
435,51	28,509
435,71	32,856
435,91	31,922
436,12	30,558
436,32	31,328
436,53	33,802
436,73	33,126
436,93	35,067
437,14	32,682
437,34	37,577
437,55	32,507
437,75	35,029
437,95	34,006
438,16	34,669
438,36	32,396
438,57	30,084
438,77	33,188
438,97	36,874
439,18	36,242
439,38	30,836
439,58	33,536
439,79	35,130
439,99	31,813
440,20	34,768
440,40	33,303
440,60	31,587
440,81	35,116
441,01	33,677
441,21	37,656
441,42	36,746
441,62	34,105
441,83	34,721
442,03	33,799
442,23	35,274
442,44	34,343
442,64	33,719
442,84	33,153
443,05	34,331
443,25	32,996
443,45	35,321
443,66	33,304
443,86	32,977
444,06	32,998
444,27	32,997
444,47	32,466
444,67	31,815
444,88	33,216
445,08	31,846
445,28	33,854
445,49	32,131
445,69	33,141
445,90	33,583
446,10	34,856
446,30	35,260
446,51	37,585
446,71	39,799
446,91	39,225
447,12	34,359
447,32	30,876
447,52	33,969
447,72	33,488
447,93	33,615
448,13	30,083
448,33	41,786
448,54	40,925
448,74	28,942
448,94	34,139
449,15	38,797
449,35	38,685
449,55	32,506
449,76	40,035
449,96	36,106
450,16	37,085
450,37	35,822
450,57	33,327
450,77	31,208
450,98	37,375
451,18	37,576
451,38	32,591
451,58	33,453
451,79	34,876
451,99	39,095
452,19	34,268
452,40	38,921
452,60	30,580
452,80	32,563
453,00	38,063
