Fichero De Datos De SpectraSuite
++++++++++++++++++++++++++++++++++++
Fecha: Wed Apr 22 11:18:58 CEST 2009
Usuario: evoflor
Presente Oscuro Del Espectro: Sí
La Referencia de Presente Del Espectro De: Sí
Muestreados de los componentes de Número de espectros: 1
Espectrómetros: USB4F02353
Tiempo de integración (usec): 500000 (USB4F02353)
Promedio de Espectros Hechos un: 5 (USB4F02353)
El Alisar Del Furgón: 0 (USB4F02353)
Párrafo de de Corregir del la del del de Eléctrica del obscuridad: Sí (USB4F02353)
Estrobo/Lámpara Permitido: No (USB4F02353)
Correct for Detector Non-linearity: No (USB4F02353)
Párrafo de de Corregir del la del del de Externa del luz: No (USB4F02353)
Procesado del espectro de Número de pixeles en: 3648
>>>>> Comienza Data<<<<< Espectral Procesado Del EL
177,79	235,284
178,00	235,284
178,22	235,284
178,44	1515,110
178,66	-215,318
178,88	235,098
179,09	50,532
179,31	160,913
179,53	512,152
179,75	216,340
179,96	378,664
180,18	-52,077
180,40	360,589
180,62	500,862
180,83	-82,541
181,05	-842,988
181,27	-85325,000
181,49	70,815
181,70	-87,212
181,92	743,782
182,14	403,389
182,36	160,373
182,58	523,750
182,79	1104,129
183,01	-92,793
183,23	121,254
183,45	-38,231
183,66	-190,376
183,88	205,441
184,10	-1927,727
184,32	106,498
184,53	276,770
184,75	-131,708
184,97	5,750
185,18	-194,220
185,40	-284,736
185,62	48,495
185,84	78,221
186,05	-27,464
186,27	-31,967
186,49	1343,269
186,71	-46,065
186,92	215,266
187,14	-261,707
187,36	108,672
187,58	56,604
187,79	61,816
188,01	261,244
188,23	-193,821
188,45	16,198
188,66	356,808
188,88	-1780,455
189,10	-889,250
189,31	-4,309
189,53	14,462
189,75	247,102
189,97	103,173
190,18	-97,318
190,40	798,382
190,62	-237,594
190,83	-208,025
191,05	230,087
191,27	164,071
191,49	313,676
191,70	-414,543
191,92	-898,517
192,14	-47,802
192,35	462,666
192,57	2360,714
192,79	-89,026
193,01	282,355
193,22	93,725
193,44	-24,275
193,66	144,715
193,87	49,732
194,09	-8,624
194,31	141,450
194,53	772,902
194,74	-14,798
194,96	140,185
195,18	148,032
195,39	-206,135
195,61	-130,298
195,83	-257,880
196,04	156,275
196,26	91,332
196,48	30,517
196,70	114,165
196,91	86,274
197,13	154,494
197,35	-39,755
197,56	573,452
197,78	1610,634
198,00	477,098
198,21	187,015
198,43	-710,610
198,65	136,485
198,86	297,212
199,08	250,246
199,30	121,711
199,51	-321,906
199,73	124,287
199,95	6,250
200,16	414,712
200,38	160,789
200,60	178,210
200,81	263,651
201,03	104,687
201,25	-1708,250
201,46	99,927
201,68	101,626
201,90	1039,205
202,11	-394,370
202,33	90,171
202,55	1156,562
202,76	-35,841
202,98	413,328
203,20	9,495
203,41	-463,289
203,63	162,122
203,85	-123125,000
204,06	26,740
204,28	2,590
204,50	121,878
204,71	381,316
204,93	-275,000
205,15	181,099
205,36	-13,432
205,58	177,591
205,80	-223,479
206,01	54,860
206,23	160,787
206,45	199,161
206,66	119,213
206,88	12,395
207,10	128,466
207,31	223,874
207,53	94,643
207,75	173,116
207,96	905,410
208,18	-127,176
208,39	71,015
208,61	1975,000
208,83	-228,752
209,04	159,582
209,26	-57,258
209,48	291,302
209,69	256,653
209,91	470,693
210,13	74,592
210,34	32,264
210,56	128,422
210,77	-820,669
210,99	89,201
211,21	1366,176
211,42	-47,044
211,64	-58,774
211,86	192,676
212,07	150,614
212,29	147,909
212,50	93,034
212,72	168,942
212,94	123,577
213,15	156,821
213,37	100,728
213,58	-239,080
213,80	-1183,036
214,02	10419,118
214,23	277,235
214,45	480,410
214,67	-821,037
214,88	-56,795
215,10	-196,171
215,31	-301,037
215,53	30,284
215,75	118,652
215,96	1457,919
216,18	162,324
216,39	118,672
216,61	323,854
216,83	336,719
217,04	1251,966
217,26	18,589
217,47	123,700
217,69	120,940
217,91	179,059
218,12	-76325,000
218,34	190,740
218,55	243,037
218,77	42,853
218,99	113,452
219,20	-142,948
219,42	350,953
219,63	-72,548
219,85	-53,433
220,06	96,250
220,28	126,225
220,50	-11,599
220,71	93,041
220,93	2357,075
221,14	-1645,250
221,36	-106,358
221,58	-68,409
221,79	139,044
222,01	751,078
222,22	490,296
222,44	-1033,427
222,65	58,126
222,87	1012,063
223,09	163,346
223,30	42,854
223,52	56,902
223,73	178,053
223,95	50,458
224,16	72,010
224,38	387,737
224,60	103,441
224,81	7,947
225,03	48,376
225,24	102,526
225,46	5,689
225,67	12,461
225,89	5,661
226,10	311,220
226,32	1028,200
226,54	56,521
226,75	-13,618
226,97	57,879
227,18	193,850
227,40	75,096
227,61	15,372
227,83	31,121
228,04	108,154
228,26	28,054
228,47	70,155
228,69	136,911
228,91	114,225
229,12	52,170
229,34	45,078
229,55	27,456
229,77	14,054
229,98	5,248
230,20	87,875
230,41	-31,089
230,63	67,832
230,84	-46,764
231,06	73,850
231,27	40,018
231,49	62,845
231,71	32,225
231,92	27,865
232,14	27,322
232,35	60,658
232,57	20,010
232,78	17,858
233,00	60,965
233,21	46,439
233,43	12,978
233,64	18,161
233,86	37,591
234,07	51,182
234,29	25,014
234,50	-2,382
234,72	40,192
234,93	8,175
235,15	38,741
235,36	26,794
235,58	35,195
235,79	39,825
236,01	12,951
236,22	8,756
236,44	46,586
236,65	11,938
236,87	19,319
237,08	8,116
237,30	-0,565
237,51	8,397
237,73	-3,852
237,94	3,846
238,16	27,210
238,37	9,767
238,59	-2,849
238,80	6,864
239,02	6,827
239,23	5,330
239,45	-9,793
239,66	26,088
239,88	18,382
240,09	20,853
240,31	1,687
240,52	6,879
240,74	18,900
240,95	3,432
241,17	-0,676
241,38	6,443
241,60	8,616
241,81	20,037
242,03	-0,945
242,24	8,600
242,46	12,923
242,67	0,063
242,89	3,278
243,10	17,912
243,32	14,224
243,53	9,641
243,75	5,276
243,96	7,044
244,18	10,176
244,39	7,690
244,60	9,511
244,82	1,490
245,03	14,671
245,25	0,491
245,46	22,028
245,68	5,785
245,89	14,666
246,11	5,293
246,32	7,145
246,54	1,961
246,75	7,233
246,97	15,428
247,18	10,939
247,39	4,473
247,61	1,981
247,82	3,046
248,04	6,705
248,25	3,484
248,47	8,515
248,68	4,359
248,90	-3,042
249,11	8,491
249,33	16,942
249,54	6,798
249,75	7,468
249,97	8,434
250,18	4,742
250,40	13,119
250,61	-7,093
250,83	-1,927
251,04	3,217
251,25	9,532
251,47	2,556
251,68	3,946
251,90	7,503
252,11	10,219
252,33	2,736
252,54	3,313
252,76	3,678
252,97	3,515
253,18	-2,633
253,40	4,527
253,61	2,604
253,83	10,200
254,04	7,038
254,25	4,062
254,47	1,950
254,68	4,140
254,90	1,900
255,11	5,291
255,33	4,101
255,54	3,041
255,75	0,081
255,97	1,409
256,18	1,753
256,40	6,894
256,61	8,790
256,82	-1,751
257,04	7,774
257,25	-0,808
257,47	4,725
257,68	0,581
257,89	8,893
258,11	9,785
258,32	10,360
258,54	5,229
258,75	8,585
258,96	11,062
259,18	7,486
259,39	2,612
259,61	9,303
259,82	-0,759
260,03	6,612
260,25	7,196
260,46	3,283
260,68	4,746
260,89	3,912
261,10	1,814
261,32	2,896
261,53	4,325
261,75	5,346
261,96	-1,380
262,17	7,993
262,39	13,625
262,60	0,724
262,81	1,279
263,03	6,922
263,24	2,671
263,46	-0,582
263,67	3,971
263,88	3,302
264,10	3,102
264,31	-1,169
264,52	1,772
264,74	6,178
264,95	2,307
265,17	4,813
265,38	5,678
265,59	6,856
265,81	4,490
266,02	1,784
266,23	0,223
266,45	5,426
266,66	7,315
266,87	5,943
267,09	3,095
267,30	6,332
267,52	7,084
267,73	0,484
267,94	4,677
268,16	5,254
268,37	3,803
268,58	6,227
268,80	0,508
269,01	1,829
269,22	4,748
269,44	6,102
269,65	3,633
269,86	-5,521
270,08	4,380
270,29	1,317
270,50	3,439
270,72	6,697
270,93	1,921
271,14	4,814
271,36	2,598
271,57	3,726
271,78	3,237
272,00	3,929
272,21	6,355
272,42	7,401
272,64	5,020
272,85	1,606
273,06	3,736
273,28	8,977
273,49	6,201
273,70	6,008
273,92	5,828
274,13	8,246
274,34	2,845
274,56	5,468
274,77	1,061
274,98	5,540
275,20	5,555
275,41	7,421
275,62	4,547
275,84	4,169
276,05	9,457
276,26	1,086
276,47	-0,856
276,69	7,735
276,90	4,555
277,11	2,880
277,33	4,537
277,54	6,676
277,75	5,318
277,97	1,366
278,18	3,901
278,39	7,407
278,61	2,717
278,82	1,528
279,03	3,730
279,24	6,611
279,46	3,584
279,67	7,671
279,88	3,089
280,10	7,361
280,31	1,775
280,52	3,787
280,73	-0,072
280,95	8,070
281,16	4,568
281,37	4,528
281,59	8,430
281,80	10,022
282,01	3,544
282,22	-0,255
282,44	0,057
282,65	8,193
282,86	6,188
283,08	1,667
283,29	4,366
283,50	4,072
283,71	3,020
283,93	5,253
284,14	3,562
284,35	0,719
284,56	2,762
284,78	2,777
284,99	5,758
285,20	10,304
285,42	3,337
285,63	4,337
285,84	0,886
286,05	3,949
286,27	3,686
286,48	1,452
286,69	-1,233
286,90	1,273
287,12	0,138
287,33	2,004
287,54	1,151
287,75	4,245
287,97	4,031
288,18	3,670
288,39	0,718
288,60	3,287
288,82	3,462
289,03	1,993
289,24	3,017
289,45	6,640
289,67	5,311
289,88	1,983
290,09	3,623
290,30	3,949
290,52	2,893
290,73	0,964
290,94	1,066
291,15	2,904
291,37	2,524
291,58	1,847
291,79	2,317
292,00	4,978
292,21	8,193
292,43	3,994
292,64	1,424
292,85	2,191
293,06	7,453
293,28	1,388
293,49	1,288
293,70	5,485
293,91	2,321
294,12	3,146
294,34	1,667
294,55	3,339
294,76	4,786
294,97	4,742
295,19	0,907
295,40	3,437
295,61	3,836
295,82	1,567
296,03	3,949
296,25	3,747
296,46	1,350
296,67	1,381
296,88	1,387
297,09	7,022
297,31	1,748
297,52	2,873
297,73	1,836
297,94	6,570
298,15	4,642
298,37	3,498
298,58	3,826
298,79	1,179
299,00	-0,660
299,21	-0,030
299,43	0,457
299,64	5,001
299,85	3,473
300,06	1,316
300,27	2,753
300,49	6,900
300,70	1,419
300,91	3,549
301,12	2,705
301,33	4,367
301,54	1,385
301,76	2,949
301,97	1,446
302,18	-0,005
302,39	5,893
302,60	4,687
302,82	2,770
303,03	7,054
303,24	4,285
303,45	5,500
303,66	1,791
303,87	3,786
304,09	5,640
304,30	1,867
304,51	0,908
304,72	3,179
304,93	3,921
305,14	1,830
305,36	0,922
305,57	0,505
305,78	3,927
305,99	0,395
306,20	2,215
306,41	1,704
306,62	2,781
306,84	2,455
307,05	-1,253
307,26	1,037
307,47	4,660
307,68	2,765
307,89	0,899
308,11	3,852
308,32	1,302
308,53	3,325
308,74	0,414
308,95	1,603
309,16	5,699
309,37	4,706
309,59	0,690
309,80	3,212
310,01	2,890
310,22	4,721
310,43	1,833
310,64	1,475
310,85	3,548
311,06	-0,178
311,28	2,998
311,49	2,247
311,70	6,403
311,91	0,308
312,12	1,156
312,33	4,035
312,54	5,245
312,75	2,650
312,97	1,900
313,18	3,215
313,39	2,064
313,60	4,721
313,81	3,292
314,02	3,897
314,23	2,531
314,44	1,248
314,65	3,089
314,87	1,475
315,08	1,127
315,29	4,467
315,50	6,349
315,71	4,553
315,92	5,617
316,13	2,571
316,34	3,013
316,55	4,834
316,77	-0,106
316,98	1,412
317,19	2,001
317,40	5,673
317,61	7,597
317,82	1,577
318,03	1,530
318,24	0,571
318,45	4,280
318,66	2,547
318,87	-0,274
319,09	4,077
319,30	2,079
319,51	1,765
319,72	5,865
319,93	4,309
320,14	5,847
320,35	2,661
320,56	-0,427
320,77	1,049
320,98	7,245
321,19	6,274
321,40	4,316
321,62	4,090
321,83	3,962
322,04	3,747
322,25	4,424
322,46	8,713
322,67	5,788
322,88	4,762
323,09	1,585
323,30	3,957
323,51	5,527
323,72	6,348
323,93	2,545
324,14	1,935
324,35	0,915
324,56	2,093
324,77	2,687
324,99	3,400
325,20	-0,334
325,41	3,982
325,62	4,665
325,83	0,908
326,04	3,016
326,25	5,786
326,46	-0,169
326,67	2,316
326,88	4,020
327,09	0,738
327,30	2,173
327,51	4,316
327,72	4,811
327,93	5,546
328,14	0,947
328,35	0,902
328,56	4,097
328,77	1,412
328,98	2,352
329,19	2,992
329,40	4,945
329,61	2,970
329,82	-1,322
330,04	2,209
330,25	1,151
330,46	1,182
330,67	2,919
330,88	1,534
331,09	0,074
331,30	1,693
331,51	3,621
331,72	4,666
331,93	7,752
332,14	3,466
332,35	5,896
332,56	3,775
332,77	4,728
332,98	-1,240
333,19	0,888
333,40	6,262
333,61	3,152
333,82	3,525
334,03	4,612
334,24	5,571
334,45	4,445
334,66	3,230
334,87	1,320
335,08	2,830
335,29	1,956
335,50	0,102
335,71	1,673
335,92	7,614
336,13	5,075
336,34	2,357
336,55	1,983
336,76	4,903
336,97	3,224
337,18	1,181
337,39	3,652
337,60	4,775
337,81	2,696
338,02	2,760
338,23	3,812
338,44	4,748
338,65	2,444
338,86	3,131
339,07	1,672
339,28	6,176
339,49	2,734
339,70	0,162
339,91	3,187
340,11	4,695
340,32	2,600
340,53	1,281
340,74	0,075
340,95	1,935
341,16	4,496
341,37	2,902
341,58	2,762
341,79	2,192
342,00	3,876
342,21	0,546
342,42	4,430
342,63	3,483
342,84	-0,883
343,05	5,418
343,26	3,997
343,47	3,721
343,68	1,433
343,89	2,270
344,10	2,274
344,31	5,822
344,52	3,421
344,73	-0,061
344,94	2,852
345,14	4,516
345,35	1,164
345,56	2,757
345,77	4,680
345,98	2,272
346,19	1,760
346,40	1,026
346,61	1,499
346,82	2,501
347,03	3,908
347,24	5,155
347,45	0,303
347,66	6,563
347,87	0,285
348,08	5,854
348,28	1,534
348,49	2,483
348,70	4,251
348,91	5,889
349,12	1,820
349,33	14,838
349,54	0,980
349,75	4,174
349,96	1,442
350,17	3,625
350,38	0,959
350,59	3,558
350,80	5,422
351,00	3,364
351,21	7,847
351,42	2,864
351,63	1,319
351,84	4,808
352,05	7,021
352,26	3,833
352,47	0,053
352,68	6,403
352,89	6,017
353,09	2,847
353,30	-1,240
353,51	2,211
353,72	5,404
353,93	6,482
354,14	-1,023
354,35	-0,186
354,56	5,743
354,77	1,867
354,98	2,058
355,18	3,550
355,39	6,654
355,60	4,758
355,81	2,370
356,02	1,559
356,23	1,964
356,44	3,083
356,65	5,377
356,85	6,340
357,06	7,529
357,27	6,159
357,48	4,582
357,69	5,388
357,90	4,302
358,11	1,445
358,32	1,933
358,52	7,039
358,73	1,294
358,94	-1,981
359,15	4,748
359,36	3,370
359,57	4,485
359,78	1,211
359,98	1,705
360,19	1,259
360,40	1,698
360,61	3,990
360,82	0,790
361,03	6,438
361,24	3,987
361,44	3,291
361,65	2,749
361,86	0,516
362,07	5,343
362,28	3,031
362,49	1,363
362,70	3,253
362,90	6,694
363,11	-1,311
363,32	2,983
363,53	3,660
363,74	4,702
363,95	5,519
364,15	4,149
364,36	7,242
364,57	5,159
364,78	2,164
364,99	4,067
365,20	2,513
365,40	5,034
365,61	2,597
365,82	5,128
366,03	5,224
366,24	5,807
366,45	1,126
366,65	2,024
366,86	2,309
367,07	2,553
367,28	4,576
367,49	4,329
367,69	6,086
367,90	1,675
368,11	5,122
368,32	0,749
368,53	3,959
368,73	7,529
368,94	4,255
369,15	2,586
369,36	5,144
369,57	4,679
369,78	5,114
369,98	5,600
370,19	7,495
370,40	4,377
370,61	2,231
370,82	5,253
371,02	5,774
371,23	7,235
371,44	3,182
371,65	7,331
371,85	6,887
372,06	4,275
372,27	4,366
372,48	3,738
372,69	4,154
372,89	2,894
373,10	2,767
373,31	3,198
373,52	6,727
373,73	6,436
373,93	2,407
374,14	1,654
374,35	6,099
374,56	6,657
374,76	6,509
374,97	2,216
375,18	3,168
375,39	4,542
375,60	4,687
375,80	0,958
376,01	1,565
376,22	3,244
376,43	2,139
376,63	4,830
376,84	3,339
377,05	6,147
377,26	6,230
377,46	2,293
377,67	3,265
377,88	5,872
378,09	3,951
378,29	0,059
378,50	4,383
378,71	7,698
378,92	3,223
379,12	-1,519
379,33	4,229
379,54	6,314
379,75	2,598
379,95	2,386
380,16	5,659
380,37	3,859
380,58	3,616
380,78	3,638
380,99	-0,927
381,20	-0,071
381,41	3,523
381,61	6,016
381,82	4,840
382,03	5,551
382,24	6,082
382,44	4,207
382,65	1,342
382,86	2,480
383,06	4,336
383,27	1,832
383,48	1,257
383,69	6,672
383,89	4,265
384,10	5,445
384,31	3,777
384,51	8,755
384,72	6,146
384,93	3,019
385,14	4,963
385,34	5,673
385,55	1,859
385,76	3,299
385,96	5,973
386,17	3,327
386,38	4,074
386,59	5,464
386,79	1,076
387,00	4,369
387,21	4,166
387,41	4,767
387,62	1,054
387,83	10,531
388,03	3,033
388,24	-0,340
388,45	5,477
388,66	4,735
388,86	4,188
389,07	3,750
389,28	7,961
389,48	7,831
389,69	2,935
389,90	2,255
390,10	5,977
390,31	7,636
390,52	-0,272
390,72	3,517
390,93	6,126
391,14	0,383
391,34	3,742
391,55	5,107
391,76	10,588
391,96	5,269
392,17	2,999
392,38	6,401
392,58	3,312
392,79	5,725
393,00	2,697
393,20	1,900
393,41	4,369
393,62	3,662
393,82	3,213
394,03	6,703
394,24	4,015
394,44	8,255
394,65	6,799
394,86	4,957
395,06	7,570
395,27	0,936
395,48	4,243
395,68	2,982
395,89	4,171
396,10	5,259
396,30	5,409
396,51	4,264
396,72	8,576
396,92	3,030
397,13	1,877
397,34	2,592
397,54	6,452
397,75	6,495
397,95	3,644
398,16	3,548
398,37	3,285
398,57	5,102
398,78	6,851
398,99	6,164
399,19	4,845
399,40	8,795
399,60	1,527
399,81	7,575
400,02	8,316
400,22	5,559
400,43	3,978
400,64	10,047
400,84	9,861
401,05	7,442
401,25	5,502
401,46	6,437
401,67	5,907
401,87	8,324
402,08	4,101
402,29	6,499
402,49	6,510
402,70	5,845
402,90	7,369
403,11	6,382
403,32	5,171
403,52	4,965
403,73	10,838
403,93	9,565
404,14	11,900
404,35	6,366
404,55	2,589
404,76	7,088
404,96	11,727
405,17	10,970
405,38	8,975
405,58	7,885
405,79	9,961
405,99	7,232
406,20	5,604
406,40	4,291
406,61	9,330
406,82	9,797
407,02	9,336
407,23	10,976
407,43	9,203
407,64	6,795
407,85	10,076
408,05	2,838
408,26	12,614
408,46	11,101
408,67	5,727
408,87	9,152
409,08	9,011
409,29	15,632
409,49	12,970
409,70	11,771
409,90	12,324
410,11	14,320
410,31	14,982
410,52	9,865
410,72	8,919
410,93	15,718
411,14	13,915
411,34	6,304
411,55	15,237
411,75	16,275
411,96	10,879
412,16	12,154
412,37	10,653
412,57	16,142
412,78	13,827
412,99	10,190
413,19	11,467
413,40	15,785
413,60	7,987
413,81	11,927
414,01	9,958
414,22	12,653
414,42	14,491
414,63	9,129
414,83	15,829
415,04	17,134
415,24	17,369
415,45	14,665
415,65	15,364
415,86	15,093
416,07	15,659
416,27	14,896
416,48	14,965
416,68	16,100
416,89	13,117
417,09	14,602
417,30	18,227
417,50	14,478
417,71	16,709
417,91	15,488
418,12	12,893
418,32	17,632
418,53	18,117
418,73	17,372
418,94	15,443
419,14	17,526
419,35	13,880
419,55	17,435
419,76	16,229
419,96	15,837
420,17	16,212
420,37	14,138
420,58	23,164
420,78	18,218
420,99	16,162
421,19	20,015
421,40	19,078
421,60	20,929
421,81	16,610
422,01	16,872
422,22	17,772
422,42	19,770
422,63	14,913
422,83	16,242
423,04	20,546
423,24	25,880
423,45	16,298
423,65	22,278
423,86	19,600
424,06	18,792
424,27	19,345
424,47	14,982
424,67	17,432
424,88	18,442
425,08	16,690
425,29	24,157
425,49	16,828
425,70	12,459
425,90	21,077
426,11	17,964
426,31	18,877
426,52	19,958
426,72	16,771
426,93	22,357
427,13	19,122
427,33	16,614
427,54	20,036
427,74	24,141
427,95	24,189
428,15	16,580
428,36	19,961
428,56	18,806
428,77	17,920
428,97	17,500
429,18	20,714
429,38	18,098
429,58	23,854
429,79	22,000
429,99	19,282
430,20	15,222
430,40	24,300
430,61	20,779
430,81	19,253
431,01	18,351
431,22	22,889
431,42	22,698
431,63	17,569
431,83	17,182
432,04	18,474
432,24	22,747
432,44	19,117
432,65	17,337
432,85	17,228
433,06	22,645
433,26	20,560
433,47	14,086
433,67	19,924
433,87	17,695
434,08	18,325
434,28	16,990
434,49	18,383
434,69	21,432
434,89	16,311
435,10	17,692
435,30	24,784
435,51	17,373
435,71	17,138
435,91	16,594
436,12	17,607
436,32	19,950
436,53	19,783
436,73	19,511
436,93	22,789
437,14	21,471
437,34	19,635
437,55	20,993
437,75	20,375
437,95	20,641
438,16	20,970
438,36	22,907
438,57	18,397
438,77	19,617
438,97	20,764
439,18	21,479
439,38	21,425
439,58	21,011
439,79	22,391
439,99	19,831
440,20	20,682
440,40	23,311
440,60	22,153
440,81	24,948
441,01	20,940
441,21	22,434
441,42	20,182
441,62	22,162
441,83	22,769
442,03	22,092
442,23	25,589
442,44	20,588
442,64	20,295
442,84	15,813
443,05	22,267
443,25	20,872
443,45	19,565
443,66	23,711
443,86	17,451
444,06	19,409
444,27	19,781
444,47	20,022
444,67	19,767
444,88	23,128
445,08	21,164
445,28	24,608
445,49	18,349
445,69	19,296
445,90	19,611
446,10	23,911
446,30	23,885
446,51	21,730
446,71	24,605
446,91	25,076
447,12	22,654
447,32	22,849
447,52	21,889
447,72	24,160
447,93	22,488
448,13	16,402
448,33	29,752
448,54	26,193
448,74	21,233
448,94	23,195
449,15	24,678
449,35	23,891
449,55	18,851
449,76	25,631
449,96	22,590
450,16	22,691
450,37	18,726
450,57	19,328
450,77	16,878
450,98	21,938
451,18	22,663
451,38	20,070
451,58	28,721
451,79	23,735
451,99	22,902
452,19	23,068
452,40	22,916
452,60	23,022
452,80	19,310
453,00	21,935
453,21	20,899
453,41	25,331
453,61	21,065
453,82	27,480
454,02	21,771
454,22	24,204
