Fichero De Datos De SpectraSuite
++++++++++++++++++++++++++++++++++++
Fecha: Wed Apr 22 11:19:55 CEST 2009
Usuario: evoflor
Presente Oscuro Del Espectro: Sí
La Referencia de Presente Del Espectro De: Sí
Muestreados de los componentes de Número de espectros: 1
Espectrómetros: USB4F02353
Tiempo de integración (usec): 500000 (USB4F02353)
Promedio de Espectros Hechos un: 5 (USB4F02353)
El Alisar Del Furgón: 0 (USB4F02353)
Párrafo de de Corregir del la del del de Eléctrica del obscuridad: Sí (USB4F02353)
Estrobo/Lámpara Permitido: No (USB4F02353)
Correct for Detector Non-linearity: No (USB4F02353)
Párrafo de de Corregir del la del del de Externa del luz: No (USB4F02353)
Procesado del espectro de Número de pixeles en: 3648
>>>>> Comienza Data<<<<< Espectral Procesado Del EL
177,79	217,429
178,00	217,429
178,22	217,429
178,44	638,242
178,66	-251,936
178,88	107,101
179,09	-243,064
179,31	337,252
179,53	809,350
179,75	85,301
179,96	1322,586
180,18	-239,446
180,40	502,930
180,62	220,743
180,83	-511,488
181,05	-685,610
181,27	-137220,000
181,49	22,565
181,70	254,308
181,92	696,548
182,14	242,530
182,36	-47,266
182,58	328,800
182,79	496,071
183,01	-75,491
183,23	134,154
183,45	-419,446
183,66	-25,752
183,88	-18,706
184,10	-2920,364
184,32	177,030
184,53	223,006
184,75	-148,873
184,97	74,760
185,18	-110,752
185,40	-296,250
185,62	93,184
185,84	162,052
186,05	102,258
186,27	-72,651
186,49	5277,692
186,71	-0,763
186,92	163,748
187,14	-113,429
187,36	81,395
187,58	218,952
187,79	-70,395
188,01	132,798
188,23	-57,443
188,45	-20,932
188,66	166,607
188,88	-2560,364
189,10	-1768,200
189,31	22,321
189,53	-7,445
189,75	350,727
189,97	136,615
190,18	-2,060
190,40	1161,882
190,62	-130,277
190,83	-77,860
191,05	105,119
191,27	122,057
191,49	237,178
191,70	-343,846
191,92	-445,932
192,14	-43,535
192,35	442,759
192,57	2043,429
192,79	-18,373
193,01	125,117
193,22	123,543
193,44	-57,543
193,66	140,541
193,87	0,899
194,09	-216,888
194,31	96,355
194,53	657,483
194,74	135,677
194,96	-37,442
195,18	106,874
195,39	-183,958
195,61	-95,339
195,83	-265,043
196,04	136,897
196,26	196,884
196,48	25,287
196,70	147,555
196,91	162,113
197,13	217,519
197,35	116,054
197,56	611,517
197,78	1547,910
198,00	380,559
198,21	-6,699
198,43	-572,791
198,65	51,760
198,86	360,863
199,08	122,361
199,30	164,818
199,51	-274,007
199,73	240,685
199,95	312,921
200,16	385,846
200,38	368,752
200,60	252,240
200,81	295,760
201,03	123,424
201,25	-1606,200
201,46	125,093
201,68	109,821
201,90	3241,364
202,11	-60,000
202,33	298,061
202,55	1501,500
202,76	14,966
202,98	-39,303
203,20	6,635
203,41	-504,316
203,63	149,158
203,85	-162420,000
204,06	71,972
204,28	64,048
204,50	196,215
204,71	263,110
204,93	82,560
205,15	218,133
205,36	-200,421
205,58	249,559
205,80	-160,143
206,01	81,341
206,23	186,139
206,45	271,352
206,66	222,751
206,88	26,521
207,10	74,591
207,31	306,914
207,53	65,486
207,75	65,096
207,96	1480,746
208,18	-112,833
208,39	56,216
208,61	4126,286
208,83	-244,405
209,04	243,726
209,26	-300,553
209,48	458,887
209,69	109,548
209,91	478,784
210,13	130,408
210,34	129,588
210,56	143,559
210,77	-1477,323
210,99	125,541
211,21	5212,941
211,42	-185,869
211,64	-63,331
211,86	130,311
212,07	174,884
212,29	143,493
212,50	118,874
212,72	119,308
212,94	80,753
213,15	48,970
213,37	148,914
213,58	-94,723
213,80	-2682,857
214,02	9924,706
214,23	278,321
214,45	393,836
214,67	861,951
214,88	-155,436
215,10	-208,310
215,31	83,450
215,53	29,591
215,75	215,165
215,96	1696,398
216,18	-653,239
216,39	150,793
216,61	319,258
216,83	246,964
217,04	722,697
217,26	44,226
217,47	167,376
217,69	288,788
217,91	-40,515
218,12	-35520,000
218,34	101,628
218,55	206,419
218,77	145,447
218,99	67,154
219,20	-106,444
219,42	312,073
219,63	-48,870
219,85	-114,175
220,06	-112,615
220,28	125,938
220,50	14,185
220,71	52,776
220,93	2928,679
221,14	-1012,200
221,36	105,889
221,58	167,782
221,79	269,056
222,01	678,621
222,22	985,658
222,44	-571,685
222,65	137,495
222,87	2,937
223,09	158,785
223,30	48,063
223,52	119,824
223,73	120,244
223,95	18,338
224,16	119,629
224,38	323,033
224,60	53,515
224,81	23,944
225,03	95,617
225,24	131,069
225,46	-9,767
225,67	-22,068
225,89	60,628
226,10	318,434
226,32	730,560
226,54	-2,600
226,75	67,569
226,97	95,907
227,18	96,283
227,40	56,227
227,61	73,231
227,83	-13,033
228,04	68,315
228,26	51,073
228,47	62,672
228,69	120,218
228,91	70,129
229,12	71,966
229,34	43,145
229,55	87,428
229,77	25,762
229,98	1,198
230,20	69,853
230,41	-8,657
230,63	98,724
230,84	43,547
231,06	12,643
231,27	34,377
231,49	59,980
231,71	9,641
231,92	22,866
232,14	-5,607
232,35	87,305
232,57	24,392
232,78	27,313
233,00	55,064
233,21	33,663
233,43	22,725
233,64	9,346
233,86	52,507
234,07	20,458
234,29	20,179
234,50	30,491
234,72	35,559
234,93	19,813
235,15	21,103
235,36	29,056
235,58	28,278
235,79	47,144
236,01	7,627
236,22	26,277
236,44	52,970
236,65	29,262
236,87	29,390
237,08	14,926
237,30	-2,573
237,51	22,972
237,73	7,579
237,94	9,009
238,16	10,444
238,37	12,465
238,59	10,683
238,80	7,841
239,02	14,365
239,23	23,418
239,45	3,354
239,66	22,558
239,88	26,560
240,09	26,770
240,31	7,415
240,52	18,821
240,74	17,025
240,95	10,196
241,17	9,877
241,38	2,456
241,60	10,387
241,81	24,299
242,03	4,770
242,24	9,620
242,46	22,490
242,67	8,986
242,89	9,914
243,10	14,912
243,32	13,440
243,53	17,738
243,75	7,162
243,96	10,734
244,18	12,335
244,39	14,636
244,60	6,966
244,82	6,726
245,03	25,435
245,25	15,320
245,46	24,811
245,68	1,328
245,89	17,748
246,11	9,904
246,32	12,292
246,54	6,268
246,75	13,652
246,97	13,186
247,18	14,548
247,39	3,567
247,61	7,879
247,82	12,854
248,04	9,226
248,25	8,651
248,47	10,972
248,68	12,748
248,90	7,753
249,11	14,915
249,33	17,234
249,54	6,053
249,75	13,176
249,97	7,513
250,18	9,265
250,40	13,550
250,61	-0,602
250,83	2,647
251,04	4,926
251,25	12,022
251,47	5,859
251,68	15,532
251,90	12,023
252,11	13,923
252,33	10,379
252,54	10,411
252,76	8,225
252,97	6,689
253,18	3,376
253,40	9,535
253,61	5,391
253,83	15,289
254,04	11,313
254,25	7,348
254,47	5,352
254,68	11,539
254,90	10,851
255,11	8,696
255,33	10,067
255,54	6,827
255,75	10,849
255,97	5,025
256,18	4,688
256,40	9,548
256,61	12,038
256,82	7,217
257,04	11,027
257,25	2,277
257,47	13,682
257,68	7,127
257,89	11,614
258,11	11,600
258,32	4,577
258,54	9,320
258,75	12,910
258,96	14,094
259,18	9,927
259,39	6,850
259,61	9,039
259,82	7,067
260,03	8,659
260,25	5,523
260,46	6,522
260,68	9,611
260,89	8,459
261,10	5,728
261,32	7,761
261,53	6,342
261,75	7,690
261,96	-0,064
262,17	13,067
262,39	11,717
262,60	5,227
262,81	3,633
263,03	11,688
263,24	8,511
263,46	2,192
263,67	4,762
263,88	9,214
264,10	9,499
264,31	4,043
264,52	7,853
264,74	12,389
264,95	4,608
265,17	13,018
265,38	9,601
265,59	11,291
265,81	12,469
266,02	3,045
266,23	4,084
266,45	11,348
266,66	9,838
266,87	9,737
267,09	5,747
267,30	9,190
267,52	13,087
267,73	5,991
267,94	7,638
268,16	7,070
268,37	6,281
268,58	6,771
268,80	4,227
269,01	5,489
269,22	9,966
269,44	10,708
269,65	3,811
269,86	1,387
270,08	7,137
270,29	4,484
270,50	11,298
270,72	12,010
270,93	7,768
271,14	3,231
271,36	6,144
271,57	10,614
271,78	7,147
272,00	8,492
272,21	11,613
272,42	9,277
272,64	8,625
272,85	5,882
273,06	6,559
273,28	13,267
273,49	9,705
273,70	8,753
273,92	7,363
274,13	11,333
274,34	5,502
274,56	8,901
274,77	2,936
274,98	9,037
275,20	9,714
275,41	7,616
275,62	3,805
275,84	7,104
276,05	16,844
276,26	3,966
276,47	4,083
276,69	11,937
276,90	10,388
277,11	5,025
277,33	7,196
277,54	10,145
277,75	10,288
277,97	4,407
278,18	6,463
278,39	8,696
278,61	4,975
278,82	8,676
279,03	8,304
279,24	7,838
279,46	6,266
279,67	10,153
279,88	8,394
280,10	10,026
280,31	3,739
280,52	8,043
280,73	2,323
280,95	7,858
281,16	6,337
281,37	6,369
281,59	11,069
281,80	13,531
282,01	9,594
282,22	3,317
282,44	2,705
282,65	15,970
282,86	8,736
283,08	7,316
283,29	6,185
283,50	6,338
283,71	8,266
283,93	9,527
284,14	10,600
284,35	7,075
284,56	9,999
284,78	3,378
284,99	6,472
285,20	12,708
285,42	7,702
285,63	3,668
285,84	2,845
286,05	4,912
286,27	8,197
286,48	3,316
286,69	5,480
286,90	6,086
287,12	6,894
287,33	4,852
287,54	7,012
287,75	7,688
287,97	7,225
288,18	9,033
288,39	5,368
288,60	6,799
288,82	7,851
289,03	5,980
289,24	6,001
289,45	10,117
289,67	8,070
289,88	5,296
290,09	9,055
290,30	9,926
290,52	6,649
290,73	7,065
290,94	1,662
291,15	8,335
291,37	8,597
291,58	8,611
291,79	7,539
292,00	6,328
292,21	8,865
292,43	6,795
292,64	4,191
292,85	6,333
293,06	8,714
293,28	6,348
293,49	6,320
293,70	7,151
293,91	5,259
294,12	8,148
294,34	6,778
294,55	5,241
294,76	6,040
294,97	8,903
295,19	5,917
295,40	7,563
295,61	10,010
295,82	5,218
296,03	7,614
296,25	6,367
296,46	5,636
296,67	3,363
296,88	2,340
297,09	9,545
297,31	6,692
297,52	8,747
297,73	5,412
297,94	10,561
298,15	7,368
298,37	6,223
298,58	7,223
298,79	10,051
299,00	5,532
299,21	4,980
299,43	5,531
299,64	10,072
299,85	9,270
300,06	6,544
300,27	4,481
300,49	10,502
300,70	6,484
300,91	5,918
301,12	7,966
301,33	10,537
301,54	5,671
301,76	8,628
301,97	3,256
302,18	5,261
302,39	8,904
302,60	8,819
302,82	6,004
303,03	8,829
303,24	8,000
303,45	8,112
303,66	6,472
303,87	6,885
304,09	7,832
304,30	8,711
304,51	6,758
304,72	5,357
304,93	8,308
305,14	7,161
305,36	3,890
305,57	4,501
305,78	9,194
305,99	6,004
306,20	5,304
306,41	5,772
306,62	4,912
306,84	5,234
307,05	4,441
307,26	8,392
307,47	10,643
307,68	6,353
307,89	6,092
308,11	8,426
308,32	3,660
308,53	7,479
308,74	3,729
308,95	6,979
309,16	8,077
309,37	9,124
309,59	2,889
309,80	8,745
310,01	6,475
310,22	7,576
310,43	6,585
310,64	8,892
310,85	6,995
311,06	5,575
311,28	5,430
311,49	6,475
311,70	8,667
311,91	3,305
312,12	6,503
312,33	8,114
312,54	8,482
312,75	5,973
312,97	6,739
313,18	7,274
313,39	4,929
313,60	4,713
313,81	7,913
314,02	8,008
314,23	7,396
314,44	2,734
314,65	5,402
314,87	4,676
315,08	6,076
315,29	7,559
315,50	8,615
315,71	9,078
315,92	10,403
316,13	5,972
316,34	7,737
316,55	8,443
316,77	5,032
316,98	4,559
317,19	3,056
317,40	6,081
317,61	10,524
317,82	5,834
318,03	5,323
318,24	6,625
318,45	10,445
318,66	7,569
318,87	5,704
319,09	9,768
319,30	6,536
319,51	9,990
319,72	8,457
319,93	7,443
320,14	6,741
320,35	8,497
320,56	5,076
320,77	6,447
320,98	10,747
321,19	7,552
321,40	5,032
321,62	8,255
321,83	5,752
322,04	8,049
322,25	7,744
322,46	10,135
322,67	8,199
322,88	8,843
323,09	8,186
323,30	10,062
323,51	8,495
323,72	10,272
323,93	4,960
324,14	7,719
324,35	2,592
324,56	5,548
324,77	6,324
324,99	6,649
325,20	4,744
325,41	7,605
325,62	7,077
325,83	2,303
326,04	5,172
326,25	9,272
326,46	5,791
326,67	8,333
326,88	7,381
327,09	4,538
327,30	4,438
327,51	6,797
327,72	7,079
327,93	9,749
328,14	-2,586
328,35	6,361
328,56	8,616
328,77	8,824
328,98	8,172
329,19	4,808
329,40	8,450
329,61	6,667
329,82	3,445
330,04	4,968
330,25	7,056
330,46	7,741
330,67	4,462
330,88	6,091
331,09	5,467
331,30	6,379
331,51	6,709
331,72	8,432
331,93	9,195
332,14	6,646
332,35	6,930
332,56	6,773
332,77	6,928
332,98	3,138
333,19	4,533
333,40	8,130
333,61	7,063
333,82	6,660
334,03	7,165
334,24	7,944
334,45	3,498
334,66	8,449
334,87	4,758
335,08	3,007
335,29	5,737
335,50	3,788
335,71	5,151
335,92	6,150
336,13	7,292
336,34	4,254
336,55	9,185
336,76	7,866
336,97	6,262
337,18	3,572
337,39	7,693
337,60	7,829
337,81	6,022
338,02	4,339
338,23	6,266
338,44	5,816
338,65	5,675
338,86	8,831
339,07	3,100
339,28	8,944
339,49	7,869
339,70	7,176
339,91	4,602
340,11	6,889
340,32	2,536
340,53	5,532
340,74	4,959
340,95	6,160
341,16	8,207
341,37	5,745
341,58	4,912
341,79	6,385
342,00	6,500
342,21	4,917
342,42	4,339
342,63	9,523
342,84	4,712
343,05	5,924
343,26	9,671
343,47	5,462
343,68	6,584
343,89	4,673
344,10	6,020
344,31	9,261
344,52	4,219
344,73	6,249
344,94	5,783
345,14	6,189
345,35	6,691
345,56	6,892
345,77	3,380
345,98	7,750
346,19	7,590
346,40	4,282
346,61	6,143
346,82	6,997
347,03	6,883
347,24	9,856
347,45	6,062
347,66	12,087
347,87	7,132
348,08	9,722
348,28	3,663
348,49	8,608
348,70	8,803
348,91	8,511
349,12	3,122
349,33	18,204
349,54	6,557
349,75	10,978
349,96	4,874
350,17	7,732
350,38	3,989
350,59	5,865
350,80	6,200
351,00	8,280
351,21	8,851
351,42	7,428
351,63	1,619
351,84	4,556
352,05	8,411
352,26	6,009
352,47	5,707
352,68	9,555
352,89	7,113
353,09	7,437
353,30	3,565
353,51	7,504
353,72	8,562
353,93	9,920
354,14	4,390
354,35	4,521
354,56	7,192
354,77	4,449
354,98	4,470
355,18	8,271
355,39	10,300
355,60	6,884
355,81	7,054
356,02	7,596
356,23	7,372
356,44	6,941
356,65	6,204
356,85	12,938
357,06	6,893
357,27	7,377
357,48	5,322
357,69	5,879
357,90	5,111
358,11	1,290
358,32	6,816
358,52	8,056
358,73	8,788
358,94	6,118
359,15	9,792
359,36	6,849
359,57	5,718
359,78	5,036
359,98	5,178
360,19	4,050
360,40	8,181
360,61	9,902
360,82	5,584
361,03	12,193
361,24	7,231
361,44	5,277
361,65	5,767
361,86	4,835
362,07	6,532
362,28	5,611
362,49	7,103
362,70	6,175
362,90	8,359
363,11	3,781
363,32	6,147
363,53	9,603
363,74	8,903
363,95	7,944
364,15	6,584
364,36	10,125
364,57	5,795
364,78	7,444
364,99	5,757
365,20	7,273
365,40	9,827
365,61	4,033
365,82	10,014
366,03	6,116
366,24	8,516
366,45	5,439
366,65	4,896
366,86	5,528
367,07	6,697
367,28	7,714
367,49	8,654
367,69	10,373
367,90	4,933
368,11	6,459
368,32	3,224
368,53	11,375
368,73	11,477
368,94	6,915
369,15	4,222
369,36	10,404
369,57	7,391
369,78	9,038
369,98	7,971
370,19	10,796
370,40	7,186
370,61	4,614
370,82	7,978
371,02	9,617
371,23	10,729
371,44	9,074
371,65	8,882
371,85	9,784
372,06	6,765
372,27	7,065
372,48	6,498
372,69	7,428
372,89	8,650
373,10	7,594
373,31	7,135
373,52	11,337
373,73	7,200
373,93	7,712
374,14	6,999
374,35	13,202
374,56	10,967
374,76	8,570
374,97	9,373
375,18	7,180
375,39	6,729
375,60	11,655
375,80	8,068
376,01	10,458
376,22	9,981
376,43	5,942
376,63	8,074
376,84	9,549
377,05	10,621
377,26	8,362
377,46	6,472
377,67	7,777
377,88	9,329
378,09	6,947
378,29	4,828
378,50	11,639
378,71	11,510
378,92	7,649
379,12	8,776
379,33	9,592
379,54	8,732
379,75	11,684
379,95	9,117
380,16	8,527
380,37	11,352
380,58	8,444
380,78	12,036
380,99	9,504
381,20	7,586
381,41	7,646
381,61	10,515
381,82	9,290
382,03	9,725
382,24	11,903
382,44	10,912
382,65	11,806
382,86	9,164
383,06	11,484
383,27	11,174
383,48	8,791
383,69	11,862
383,89	12,327
384,10	10,618
384,31	12,450
384,51	10,622
384,72	11,427
384,93	8,072
385,14	13,299
385,34	11,597
385,55	10,425
385,76	8,296
385,96	13,694
386,17	14,174
386,38	14,182
386,59	14,995
386,79	10,478
387,00	14,936
387,21	16,872
387,41	12,299
387,62	14,480
387,83	12,902
388,03	14,983
388,24	9,709
388,45	16,214
388,66	16,358
388,86	13,842
389,07	11,522
389,28	19,799
389,48	16,969
389,69	14,591
389,90	13,651
390,10	16,024
390,31	16,525
390,52	9,574
390,72	12,251
390,93	16,324
391,14	12,735
391,34	15,422
391,55	17,741
391,76	18,076
391,96	13,354
392,17	14,977
392,38	16,535
392,58	17,090
392,79	16,210
393,00	16,405
393,20	14,523
393,41	16,924
393,62	17,278
393,82	14,752
394,03	17,072
394,24	15,250
394,44	20,515
394,65	18,951
394,86	16,451
395,06	18,219
395,27	13,080
395,48	17,386
395,68	17,111
395,89	20,105
396,10	19,353
396,30	18,191
396,51	18,813
396,72	23,188
396,92	19,247
397,13	20,925
397,34	15,672
397,54	22,048
397,75	19,198
397,95	13,934
398,16	18,433
398,37	19,382
398,57	21,038
398,78	22,524
398,99	22,518
399,19	22,697
399,40	19,600
399,60	18,056
399,81	21,492
400,02	22,523
400,22	20,843
400,43	18,376
400,64	23,419
400,84	22,736
401,05	22,155
401,25	22,665
401,46	20,600
401,67	19,518
401,87	20,395
402,08	18,135
402,29	20,691
402,49	27,363
402,70	24,791
402,90	17,793
403,11	24,465
403,32	25,501
403,52	19,803
403,73	22,297
403,93	22,252
404,14	27,871
404,35	27,220
404,55	23,347
404,76	21,744
404,96	26,045
405,17	26,294
405,38	30,167
405,58	22,783
405,79	27,558
405,99	27,094
406,20	23,383
406,40	22,391
406,61	28,544
406,82	26,452
407,02	28,405
407,23	25,631
407,43	26,450
407,64	25,307
407,85	27,324
408,05	21,654
408,26	30,259
408,46	27,678
408,67	22,883
408,87	26,675
409,08	29,711
409,29	28,585
409,49	30,902
409,70	24,687
409,90	26,837
410,11	29,133
410,31	32,977
410,52	27,782
410,72	25,925
410,93	28,259
411,14	28,444
411,34	28,630
411,55	30,606
411,75	31,202
411,96	27,926
412,16	33,119
412,37	27,963
412,57	31,078
412,78	29,831
412,99	27,644
413,19	32,622
413,40	24,694
413,60	28,415
413,81	29,850
414,01	29,630
414,22	30,299
414,42	32,499
414,63	30,106
414,83	29,863
415,04	35,007
415,24	34,658
415,45	29,653
415,65	33,217
415,86	30,609
416,07	31,098
416,27	28,408
416,48	32,770
416,68	36,847
416,89	29,454
417,09	29,347
417,30	35,273
417,50	34,305
417,71	30,639
417,91	35,367
418,12	29,833
418,32	30,913
418,53	29,599
418,73	34,666
418,94	31,160
419,14	33,092
419,35	31,780
419,55	33,935
419,76	31,531
419,96	32,467
420,17	30,487
420,37	32,382
420,58	36,753
420,78	36,468
420,99	32,286
421,19	38,217
421,40	39,181
421,60	36,349
421,81	33,149
422,01	36,897
422,22	32,670
422,42	37,302
422,63	33,606
422,83	30,840
423,04	36,776
423,24	35,491
423,45	30,707
423,65	34,650
423,86	32,361
424,06	36,705
424,27	31,525
424,47	28,057
424,67	34,445
424,88	37,460
425,08	34,257
425,29	41,505
425,49	34,659
425,70	32,671
425,90	34,406
426,11	35,374
426,31	31,694
426,52	37,299
426,72	33,426
426,93	34,600
427,13	37,928
427,33	35,912
427,54	35,205
427,74	35,428
427,95	38,439
428,15	34,773
428,36	36,824
428,56	35,867
428,77	37,856
428,97	33,542
429,18	36,466
429,38	33,789
429,58	39,202
429,79	38,673
429,99	33,685
430,20	32,407
430,40	37,385
430,61	32,358
430,81	31,815
431,01	33,087
431,22	36,697
431,42	37,769
431,63	32,953
431,83	34,604
432,04	39,241
432,24	39,870
432,44	36,002
432,65	33,247
432,85	34,213
433,06	39,054
433,26	33,122
433,47	31,019
433,67	32,405
433,87	33,883
434,08	30,622
434,28	32,896
434,49	32,347
434,69	35,410
434,89	31,214
435,10	31,475
435,30	39,082
435,51	30,758
435,71	30,444
435,91	31,126
436,12	33,606
436,32	31,360
436,53	35,027
436,73	31,388
436,93	34,690
437,14	35,922
437,34	38,797
437,55	33,636
437,75	34,166
437,95	36,260
438,16	35,951
438,36	37,798
438,57	33,072
438,77	35,353
438,97	36,874
439,18	40,525
439,38	36,114
439,58	33,278
439,79	33,668
439,99	32,488
440,20	38,393
440,40	39,633
440,60	34,144
440,81	41,254
441,01	37,360
441,21	35,873
441,42	38,408
441,62	41,322
441,83	38,144
442,03	37,515
442,23	35,490
442,44	36,179
442,64	38,124
442,84	36,708
443,05	36,208
443,25	35,568
443,45	38,645
443,66	34,457
443,86	31,818
444,06	33,730
444,27	35,514
444,47	35,687
444,67	33,705
444,88	39,529
445,08	39,216
445,28	36,659
445,49	33,664
445,69	33,735
445,90	34,105
446,10	39,880
446,30	37,077
446,51	30,932
446,71	41,430
446,91	39,735
447,12	42,208
447,32	33,364
447,52	37,818
447,72	38,937
447,93	38,718
448,13	35,100
448,33	39,006
448,54	39,068
448,74	36,771
448,94	41,300
449,15	39,990
449,35	39,107
449,55	35,456
449,76	40,491
449,96	38,117
450,16	37,620
450,37	35,862
450,57	35,572
450,77	35,936
450,98	37,337
451,18	39,418
451,38	37,124
451,58	38,159
451,79	36,774
