Fichero De Datos De SpectraSuite
++++++++++++++++++++++++++++++++++++
Fecha: Wed Apr 22 11:22:08 CEST 2009
Usuario: evoflor
Presente Oscuro Del Espectro: Sí
La Referencia de Presente Del Espectro De: Sí
Muestreados de los componentes de Número de espectros: 1
Espectrómetros: USB4F02353
Tiempo de integración (usec): 500000 (USB4F02353)
Promedio de Espectros Hechos un: 5 (USB4F02353)
El Alisar Del Furgón: 0 (USB4F02353)
Párrafo de de Corregir del la del del de Eléctrica del obscuridad: Sí (USB4F02353)
Estrobo/Lámpara Permitido: No (USB4F02353)
Correct for Detector Non-linearity: No (USB4F02353)
Párrafo de de Corregir del la del del de Externa del luz: No (USB4F02353)
Procesado del espectro de Número de pixeles en: 3648
>>>>> Comienza Data<<<<< Espectral Procesado Del EL
177,79	223,647
178,00	223,647
178,22	223,647
178,44	659,066
178,66	-175,796
178,88	75,163
179,09	-81,809
179,31	221,261
179,53	430,108
179,75	71,461
179,96	724,353
180,18	-205,923
180,40	161,545
180,62	521,286
180,83	-337,087
181,05	-1189,329
181,27	-79525,000
181,49	-100,489
181,70	35,865
181,92	444,797
182,14	217,846
182,36	291,922
182,58	86,750
182,79	837,165
183,01	-79,281
183,23	135,349
183,45	-61,923
183,66	-200,553
183,88	372,500
184,10	-1675,000
184,32	359,468
184,53	112,319
184,75	-135,823
184,97	82,038
185,18	-24,295
185,40	-542,428
185,62	107,781
185,84	18,395
186,05	73,490
186,27	-223,459
186,49	4270,192
186,71	120,707
186,92	79,837
187,14	-202,774
187,36	138,504
187,58	89,866
187,79	-131,801
188,01	192,465
188,23	-208,026
188,45	-1,969
188,66	9,487
188,88	-2313,182
189,10	-1236,250
189,31	-0,555
189,53	-155,429
189,75	297,330
189,97	208,942
190,18	-95,172
190,40	483,676
190,62	-145,907
190,83	-214,251
191,05	112,122
191,27	183,500
191,49	334,963
191,70	-321,755
191,92	-414,619
192,14	-9,880
192,35	609,615
192,57	1989,286
192,79	56,585
193,01	182,849
193,22	122,564
193,44	-144,923
193,66	89,119
193,87	6,478
194,09	-44,423
194,31	98,373
194,53	921,154
194,74	-40,121
194,96	-37,564
195,18	160,740
195,39	-150,462
195,61	-107,638
195,83	-104,402
196,04	111,069
196,26	-449,372
196,48	72,537
196,70	57,903
196,91	143,255
197,13	187,658
197,35	-139,081
197,56	349,303
197,78	2118,097
198,00	480,594
198,21	281,189
198,43	-488,517
198,65	148,283
198,86	117,716
199,08	116,148
199,30	140,941
199,51	-288,355
199,73	155,813
199,95	375,062
200,16	399,327
200,38	245,451
200,60	103,174
200,81	266,649
201,03	137,840
201,25	-1308,250
201,46	251,439
201,68	127,545
201,90	1418,750
202,11	-334,447
202,33	226,795
202,55	-412,187
202,76	-42,592
202,98	299,042
203,20	-161,659
203,41	-603,289
203,63	89,768
203,85	-100225,000
204,06	32,077
204,28	-33,313
204,50	189,098
204,71	328,136
204,93	53,000
205,15	239,533
205,36	-189,914
205,58	144,002
205,80	-203,444
206,01	111,057
206,23	119,595
206,45	175,479
206,66	138,159
206,88	37,269
207,10	158,239
207,31	328,245
207,53	70,357
207,75	31,609
207,96	271,082
208,18	-186,391
208,39	156,221
208,61	1809,286
208,83	-278,018
209,04	149,090
209,26	73,157
209,48	75,795
209,69	171,815
209,91	484,544
210,13	16,253
210,34	188,196
210,56	98,054
210,77	-902,559
210,99	112,041
211,21	6213,235
211,42	-122,664
211,64	28,338
211,86	171,399
212,07	286,597
212,29	246,806
212,50	94,574
212,72	35,865
212,94	154,750
213,15	86,797
213,37	95,609
213,58	-130,432
213,80	-1554,464
214,02	8330,882
214,23	228,878
214,45	343,361
214,67	-1441,768
214,88	56,292
215,10	-311,136
215,31	-58,242
215,53	-144,489
215,75	141,435
215,96	1522,516
216,18	-692,606
216,39	165,682
216,61	313,155
216,83	262,612
217,04	1469,944
217,26	29,556
217,47	32,660
217,69	131,507
217,91	-19,394
218,12	-59725,000
218,34	211,955
218,55	344,629
218,77	76,117
218,99	85,997
219,20	-75,033
219,42	372,294
219,63	-25,640
219,85	-94,071
220,06	-161,442
220,28	192,012
220,50	-53,066
220,71	82,381
220,93	2689,151
221,14	-1362,250
221,36	-10,946
221,58	-26,773
221,79	-238,923
222,01	1205,388
222,22	398,849
222,44	-148,034
222,65	161,690
222,87	543,531
223,09	109,617
223,30	90,204
223,52	149,585
223,73	56,615
223,95	16,937
224,16	230,773
224,38	60,486
224,60	99,631
224,81	167,807
225,03	72,715
225,24	136,201
225,46	-66,736
225,67	-59,234
225,89	-67,899
226,10	391,340
226,32	657,800
226,54	67,232
226,75	-41,944
226,97	99,026
227,18	105,807
227,40	74,789
227,61	33,922
227,83	22,188
228,04	70,477
228,26	43,246
228,47	51,737
228,69	156,016
228,91	167,453
229,12	88,684
229,34	63,546
229,55	45,508
229,77	33,358
229,98	23,975
230,20	81,869
230,41	-8,719
230,63	72,864
230,84	-0,551
231,06	0,145
231,27	3,443
231,49	47,059
231,71	16,975
231,92	46,360
232,14	27,212
232,35	11,328
232,57	29,548
232,78	12,052
233,00	9,882
233,21	45,186
233,43	11,640
233,64	31,770
233,86	10,098
234,07	3,893
234,29	19,668
234,50	8,264
234,72	32,614
234,93	-7,525
235,15	20,722
235,36	25,892
235,58	30,801
235,79	26,640
236,01	14,452
236,22	2,295
236,44	17,692
236,65	14,980
236,87	17,319
237,08	6,481
237,30	-10,381
237,51	7,054
237,73	-8,695
237,94	5,657
238,16	15,472
238,37	-2,956
238,59	7,711
238,80	10,889
239,02	8,545
239,23	16,105
239,45	-6,672
239,66	19,978
239,88	28,411
240,09	20,527
240,31	6,336
240,52	2,142
240,74	6,418
240,95	5,269
241,17	10,958
241,38	5,918
241,60	10,662
241,81	24,815
242,03	0,590
242,24	3,814
242,46	13,039
242,67	1,520
242,89	6,766
243,10	13,017
243,32	12,535
243,53	9,071
243,75	2,451
243,96	0,547
244,18	10,071
244,39	11,546
244,60	3,247
244,82	3,099
245,03	13,248
245,25	7,164
245,46	17,617
245,68	4,322
245,89	20,493
246,11	5,868
246,32	5,922
246,54	-2,269
246,75	10,797
246,97	4,407
247,18	12,303
247,39	3,118
247,61	6,725
247,82	13,558
248,04	4,084
248,25	4,305
248,47	8,201
248,68	10,308
248,90	-1,642
249,11	11,266
249,33	13,043
249,54	5,545
249,75	5,744
249,97	2,462
250,18	16,388
250,40	18,865
250,61	-6,262
250,83	-1,344
251,04	-3,438
251,25	9,290
251,47	0,169
251,68	4,291
251,90	4,993
252,11	6,061
252,33	2,233
252,54	8,628
252,76	2,782
252,97	2,541
253,18	-0,663
253,40	0,408
253,61	3,675
253,83	6,282
254,04	9,908
254,25	3,228
254,47	3,479
254,68	3,017
254,90	3,434
255,11	5,400
255,33	3,989
255,54	2,176
255,75	-1,639
255,97	3,603
256,18	-0,204
256,40	4,021
256,61	6,883
256,82	-3,879
257,04	8,915
257,25	-0,124
257,47	1,126
257,68	1,824
257,89	9,829
258,11	6,029
258,32	5,116
258,54	4,205
258,75	11,347
258,96	5,859
259,18	2,852
259,39	3,882
259,61	3,230
259,82	1,016
260,03	6,356
260,25	2,564
260,46	3,940
260,68	0,891
260,89	5,735
261,10	0,177
261,32	4,249
261,53	1,614
261,75	8,085
261,96	0,306
262,17	6,577
262,39	8,747
262,60	-1,165
262,81	-5,259
263,03	6,626
263,24	1,888
263,46	-1,092
263,67	0,396
263,88	3,979
264,10	4,640
264,31	3,250
264,52	3,534
264,74	6,963
264,95	5,059
265,17	6,534
265,38	3,792
265,59	1,241
265,81	8,408
266,02	0,891
266,23	2,584
266,45	8,107
266,66	7,227
266,87	5,261
267,09	-1,776
267,30	4,935
267,52	8,222
267,73	1,639
267,94	0,980
268,16	7,066
268,37	2,761
268,58	4,763
268,80	1,245
269,01	1,735
269,22	5,280
269,44	5,650
269,65	2,619
269,86	-1,964
270,08	6,342
270,29	2,588
270,50	5,345
270,72	7,016
270,93	-1,499
271,14	-1,229
271,36	0,637
271,57	1,447
271,78	3,824
272,00	4,410
272,21	4,957
272,42	6,477
272,64	2,653
272,85	0,307
273,06	3,341
273,28	4,210
273,49	5,216
273,70	3,271
273,92	6,164
274,13	5,758
274,34	4,035
274,56	3,639
274,77	1,081
274,98	9,373
275,20	2,437
275,41	5,480
275,62	0,882
275,84	0,539
276,05	8,822
276,26	0,471
276,47	-0,341
276,69	3,650
276,90	6,428
277,11	0,534
277,33	0,949
277,54	6,522
277,75	4,375
277,97	1,453
278,18	1,249
278,39	5,108
278,61	1,968
278,82	4,172
279,03	5,685
279,24	3,825
279,46	2,638
279,67	5,097
279,88	1,526
280,10	6,487
280,31	0,076
280,52	4,594
280,73	-0,219
280,95	6,882
281,16	4,713
281,37	2,821
281,59	7,801
281,80	9,043
282,01	2,892
282,22	1,538
282,44	0,613
282,65	9,793
282,86	5,312
283,08	1,198
283,29	2,554
283,50	2,286
283,71	3,526
283,93	3,940
284,14	3,810
284,35	0,579
284,56	4,117
284,78	0,959
284,99	2,093
285,20	6,596
285,42	4,842
285,63	0,131
285,84	-2,081
286,05	0,315
286,27	2,986
286,48	0,754
286,69	2,232
286,90	1,754
287,12	0,440
287,33	4,962
287,54	1,167
287,75	2,903
287,97	3,401
288,18	3,741
288,39	0,676
288,60	2,988
288,82	3,055
289,03	0,759
289,24	1,910
289,45	5,364
289,67	3,052
289,88	1,118
290,09	3,213
290,30	1,391
290,52	2,529
290,73	2,190
290,94	-1,721
291,15	2,003
291,37	3,105
291,58	1,614
291,79	0,170
292,00	3,101
292,21	4,462
292,43	3,171
292,64	0,670
292,85	1,911
293,06	4,559
293,28	-0,148
293,49	-0,624
293,70	5,473
293,91	2,904
294,12	4,400
294,34	2,125
294,55	2,292
294,76	1,141
294,97	4,177
295,19	-2,272
295,40	5,010
295,61	4,537
295,82	-1,924
296,03	3,861
296,25	3,098
296,46	0,827
296,67	0,135
296,88	-0,598
297,09	4,407
297,31	2,803
297,52	2,307
297,73	2,169
297,94	4,253
298,15	4,035
298,37	2,717
298,58	2,713
298,79	3,857
299,00	1,622
299,21	2,304
299,43	1,589
299,64	7,931
299,85	2,825
300,06	1,589
300,27	1,388
300,49	8,889
300,70	2,831
300,91	4,470
301,12	1,600
301,33	6,163
301,54	2,640
301,76	0,765
301,97	0,501
302,18	1,054
302,39	5,227
302,60	4,987
302,82	1,482
303,03	5,935
303,24	2,943
303,45	2,028
303,66	3,726
303,87	2,009
304,09	4,577
304,30	2,560
304,51	1,017
304,72	1,957
304,93	4,379
305,14	5,395
305,36	-0,967
305,57	1,174
305,78	1,157
305,99	-0,579
306,20	1,960
306,41	0,839
306,62	0,780
306,84	0,711
307,05	0,988
307,26	0,577
307,47	5,607
307,68	0,543
307,89	-1,212
308,11	3,515
308,32	2,178
308,53	3,623
308,74	0,994
308,95	3,103
309,16	1,542
309,37	5,666
309,59	0,753
309,80	4,784
310,01	3,723
310,22	4,641
310,43	3,119
310,64	2,754
310,85	2,783
311,06	0,429
311,28	1,885
311,49	1,171
311,70	6,803
311,91	1,307
312,12	0,648
312,33	3,450
312,54	3,850
312,75	0,516
312,97	-0,139
313,18	1,897
313,39	3,076
313,60	1,616
313,81	2,772
314,02	2,273
314,23	3,192
314,44	0,539
314,65	2,329
314,87	2,241
315,08	1,997
315,29	5,682
315,50	2,506
315,71	2,695
315,92	6,507
316,13	2,369
316,34	6,479
316,55	4,799
316,77	-0,748
316,98	2,072
317,19	0,033
317,40	5,516
317,61	4,977
317,82	1,878
318,03	-2,062
318,24	1,888
318,45	7,537
318,66	2,488
318,87	-0,529
319,09	3,800
319,30	3,953
319,51	1,557
319,72	4,591
319,93	5,196
320,14	5,062
320,35	2,803
320,56	0,282
320,77	2,146
320,98	6,827
321,19	4,513
321,40	2,752
321,62	4,209
321,83	4,109
322,04	3,921
322,25	4,090
322,46	6,528
322,67	4,470
322,88	3,891
323,09	2,409
323,30	3,158
323,51	5,094
323,72	3,690
323,93	0,672
324,14	3,837
324,35	-1,064
324,56	1,020
324,77	1,208
324,99	2,556
325,20	-0,598
325,41	2,548
325,62	5,429
325,83	-1,231
326,04	1,697
326,25	2,641
326,46	1,395
326,67	3,665
326,88	4,992
327,09	0,967
327,30	1,492
327,51	4,061
327,72	3,051
327,93	3,417
328,14	0,730
328,35	1,496
328,56	4,762
328,77	0,885
328,98	4,191
329,19	2,746
329,40	3,164
329,61	2,026
329,82	1,842
330,04	1,354
330,25	1,297
330,46	2,889
330,67	1,769
330,88	1,731
331,09	2,922
331,30	3,246
331,51	1,862
331,72	1,775
331,93	5,313
332,14	2,221
332,35	1,815
332,56	6,531
332,77	3,375
332,98	-0,358
333,19	0,693
333,40	3,341
333,61	1,983
333,82	5,524
334,03	1,905
334,24	4,512
334,45	2,610
334,66	3,710
334,87	2,184
335,08	-0,600
335,29	1,812
335,50	2,018
335,71	0,586
335,92	6,518
336,13	7,839
336,34	-4,420
336,55	3,085
336,76	6,112
336,97	3,369
337,18	1,249
337,39	2,178
337,60	5,423
337,81	2,132
338,02	1,242
338,23	1,499
338,44	3,187
338,65	4,592
338,86	1,940
339,07	1,287
339,28	5,379
339,49	1,995
339,70	-0,270
339,91	4,388
340,11	5,758
340,32	-0,804
340,53	0,278
340,74	-1,220
340,95	1,485
341,16	5,401
341,37	-0,262
341,58	0,591
341,79	1,163
342,00	2,399
342,21	1,268
342,42	1,234
342,63	0,964
342,84	2,416
343,05	3,914
343,26	4,332
343,47	2,664
343,68	1,843
343,89	2,340
344,10	3,201
344,31	2,418
344,52	1,988
344,73	1,895
344,94	1,480
345,14	2,629
345,35	4,323
345,56	3,822
345,77	2,984
345,98	2,973
346,19	1,434
346,40	4,651
346,61	1,988
346,82	3,840
347,03	1,249
347,24	5,675
347,45	0,458
347,66	6,415
347,87	-1,704
348,08	5,417
348,28	-2,670
348,49	1,452
348,70	4,709
348,91	4,646
349,12	3,205
349,33	14,126
349,54	5,030
349,75	6,681
349,96	1,266
350,17	5,642
350,38	2,846
350,59	3,342
350,80	3,074
351,00	6,059
351,21	6,962
351,42	0,806
351,63	0,236
351,84	3,190
352,05	4,581
352,26	2,756
352,47	1,062
352,68	6,504
352,89	7,139
353,09	3,213
353,30	-0,350
353,51	3,486
353,72	6,496
353,93	6,060
354,14	1,275
354,35	4,578
354,56	2,257
354,77	2,833
354,98	1,147
355,18	5,212
355,39	7,605
355,60	2,002
355,81	2,533
356,02	2,719
356,23	3,748
356,44	5,468
356,65	3,629
356,85	9,280
357,06	7,367
357,27	5,404
357,48	2,680
357,69	3,223
357,90	0,921
358,11	-0,454
358,32	0,906
358,52	6,674
358,73	2,404
358,94	1,627
359,15	3,410
359,36	3,864
359,57	1,407
359,78	3,937
359,98	0,071
360,19	-1,043
360,40	1,685
360,61	6,133
360,82	1,755
361,03	4,947
361,24	6,252
361,44	2,280
361,65	3,977
361,86	1,270
362,07	2,286
362,28	2,035
362,49	2,506
362,70	4,484
362,90	5,829
363,11	0,960
363,32	0,720
363,53	3,324
363,74	6,648
363,95	5,208
364,15	4,872
364,36	7,053
364,57	5,820
364,78	2,359
364,99	2,853
365,20	7,270
365,40	8,134
365,61	0,618
365,82	1,079
366,03	2,596
366,24	4,811
366,45	1,635
366,65	1,158
366,86	2,539
367,07	1,215
367,28	0,994
367,49	4,969
367,69	3,748
367,90	4,044
368,11	1,930
368,32	2,843
368,53	5,100
368,73	4,086
368,94	1,721
369,15	3,365
369,36	3,544
369,57	3,399
369,78	0,261
369,98	4,622
370,19	6,603
370,40	2,187
370,61	3,430
370,82	2,503
371,02	2,559
371,23	7,772
371,44	3,389
371,65	3,102
371,85	4,896
372,06	2,043
372,27	3,490
372,48	1,685
372,69	1,388
372,89	0,989
373,10	3,172
373,31	2,374
373,52	3,725
373,73	7,537
373,93	2,699
374,14	1,421
374,35	4,498
374,56	4,514
374,76	1,392
374,97	-0,865
375,18	4,286
375,39	4,962
375,60	5,581
375,80	1,815
376,01	-0,359
376,22	2,859
376,43	2,066
376,63	3,235
376,84	-0,082
377,05	2,941
377,26	2,506
377,46	2,468
377,67	2,706
377,88	2,479
378,09	3,846
378,29	1,833
378,50	5,646
378,71	4,166
378,92	1,942
379,12	0,831
379,33	2,982
379,54	2,969
379,75	4,528
379,95	0,695
380,16	4,328
380,37	5,294
380,58	3,945
380,78	5,243
380,99	1,947
381,20	2,847
381,41	6,943
381,61	7,856
381,82	3,734
382,03	4,196
382,24	4,754
382,44	5,111
382,65	3,840
382,86	3,393
383,06	4,553
383,27	5,723
383,48	2,505
383,69	4,845
383,89	6,067
384,10	2,822
384,31	3,104
384,51	7,819
384,72	3,741
384,93	2,347
385,14	5,014
385,34	5,434
385,55	2,663
385,76	1,615
385,96	7,985
386,17	3,807
386,38	7,400
386,59	4,864
386,79	4,276
387,00	6,705
387,21	2,916
387,41	3,517
387,62	1,746
387,83	7,294
388,03	4,424
388,24	-0,887
388,45	6,803
388,66	3,745
388,86	5,381
389,07	2,720
389,28	8,729
389,48	5,596
389,69	3,770
389,90	5,682
390,10	1,730
390,31	7,968
390,52	-1,083
390,72	1,741
390,93	6,807
391,14	1,342
391,34	4,304
391,55	6,550
391,76	10,095
391,96	7,984
392,17	3,464
392,38	8,617
392,58	5,682
392,79	4,584
393,00	4,518
393,20	1,756
393,41	5,275
393,62	2,829
393,82	7,480
394,03	5,286
394,24	7,989
394,44	5,682
394,65	6,488
394,86	4,943
395,06	7,957
395,27	3,851
395,48	5,982
395,68	9,138
395,89	6,134
396,10	6,772
396,30	5,585
396,51	3,038
396,72	5,511
396,92	2,475
397,13	7,480
397,34	0,578
397,54	7,412
397,75	5,226
397,95	2,848
398,16	7,540
398,37	2,769
398,57	4,301
398,78	6,488
398,99	9,268
399,19	8,305
399,40	8,746
399,60	6,081
399,81	7,766
400,02	6,515
400,22	8,650
400,43	4,494
400,64	5,871
400,84	6,893
401,05	7,289
401,25	7,915
401,46	10,152
401,67	10,012
401,87	6,219
402,08	5,345
402,29	5,973
402,49	11,390
402,70	10,711
402,90	5,777
403,11	8,231
403,32	10,701
403,52	7,727
403,73	8,944
403,93	12,516
404,14	11,562
404,35	12,558
404,55	4,859
404,76	7,004
404,96	11,071
405,17	10,890
405,38	12,066
405,58	8,113
405,79	13,567
405,99	14,724
406,20	7,060
406,40	8,022
406,61	12,392
406,82	9,164
407,02	13,039
407,23	6,118
407,43	9,996
407,64	5,983
407,85	9,104
408,05	7,389
408,26	17,668
408,46	11,878
408,67	8,916
408,87	9,671
409,08	11,637
409,29	17,362
409,49	13,060
409,70	8,947
409,90	14,050
410,11	10,358
410,31	14,933
410,52	8,384
410,72	10,790
410,93	14,047
411,14	8,979
411,34	8,511
411,55	14,201
411,75	12,668
411,96	12,076
412,16	12,975
412,37	11,829
412,57	11,038
412,78	12,826
412,99	14,309
413,19	16,278
413,40	14,222
413,60	12,626
413,81	10,515
414,01	12,689
414,22	11,360
414,42	14,734
414,63	7,224
414,83	17,429
415,04	19,176
415,24	11,918
415,45	11,656
415,65	16,962
415,86	11,134
416,07	14,677
416,27	13,864
416,48	15,910
416,68	15,797
416,89	10,791
417,09	15,550
417,30	18,286
417,50	17,212
417,71	15,196
417,91	14,922
418,12	14,401
418,32	15,262
418,53	11,505
418,73	16,772
418,94	11,058
419,14	15,252
419,35	10,057
419,55	12,808
419,76	14,724
419,96	12,405
420,17	13,298
420,37	12,917
420,58	18,750
420,78	17,875
420,99	15,777
421,19	16,793
421,40	16,906
421,60	18,071
421,81	14,447
422,01	14,569
422,22	14,171
422,42	20,259
422,63	15,807
422,83	12,391
423,04	19,944
423,24	18,776
423,45	13,492
423,65	15,639
423,86	20,157
424,06	20,524
424,27	13,511
424,47	13,213
424,67	11,879
424,88	16,252
425,08	18,686
425,29	24,067
425,49	15,206
425,70	12,288
425,90	15,026
426,11	15,959
426,31	15,509
426,52	14,933
426,72	15,202
426,93	12,195
427,13	20,698
427,33	18,170
427,54	17,432
427,74	20,112
427,95	20,193
428,15	14,294
428,36	18,870
428,56	17,084
428,77	21,418
428,97	15,288
429,18	15,313
429,38	15,187
429,58	20,754
429,79	17,481
429,99	15,464
430,20	11,650
430,40	21,336
430,61	19,091
430,81	14,041
431,01	14,073
431,22	22,839
431,42	20,012
431,63	13,807
431,83	15,706
432,04	18,035
432,24	17,570
432,44	14,683
432,65	14,859
432,85	16,430
433,06	20,059
433,26	18,239
433,47	15,123
433,67	15,756
433,87	14,382
434,08	11,993
434,28	14,756
434,49	18,535
434,69	21,906
434,89	17,667
435,10	13,939
435,30	20,551
435,51	13,536
435,71	16,995
435,91	13,492
436,12	19,711
436,32	15,797
436,53	14,837
436,73	15,131
436,93	20,267
437,14	18,750
437,34	17,105
437,55	15,095
437,75	12,522
437,95	20,552
438,16	15,612
438,36	16,445
438,57	12,404
438,77	13,491
438,97	19,368
439,18	21,070
439,38	17,087
439,58	12,809
439,79	15,871
439,99	16,408
440,20	17,480
440,40	17,839
440,60	16,917
440,81	18,941
441,01	21,177
441,21	17,459
441,42	19,949
441,62	17,853
441,83	19,401
442,03	18,590
442,23	21,283
442,44	15,322
442,64	18,553
442,84	13,114
443,05	16,373
443,25	14,137
443,45	16,890
443,66	17,967
443,86	16,747
444,06	19,210
444,27	18,453
444,47	18,980
444,67	13,889
444,88	20,029
445,08	19,306
445,28	18,772
445,49	15,528
445,69	17,081
445,90	17,996
446,10	21,310
446,30	19,014
446,51	18,975
446,71	22,085
446,91	25,060
447,12	22,564
447,32	18,435
447,52	19,476
447,72	15,766
447,93	17,153
448,13	13,933
448,33	24,533
448,54	20,564
448,74	13,968
448,94	22,534
449,15	23,288
449,35	18,312
449,55	19,245
449,76	25,614
449,96	19,575
450,16	19,120
450,37	14,906
450,57	16,849
450,77	16,185
450,98	18,155
451,18	21,857
451,38	17,538
451,58	21,588
451,79	17,443
451,99	19,477
452,19	19,542
452,40	22,296
452,60	12,988
452,80	18,353
453,00	17,655
453,21	22,405
453,41	22,202
453,61	19,611
453,82	23,068
