Fichero De Datos De SpectraSuite
++++++++++++++++++++++++++++++++++++
Fecha: Wed Apr 22 11:27:20 CEST 2009
Usuario: evoflor
Presente Oscuro Del Espectro: Sí
La Referencia de Presente Del Espectro De: Sí
Muestreados de los componentes de Número de espectros: 1
Espectrómetros: USB4F02353
Tiempo de integración (usec): 500000 (USB4F02353)
Promedio de Espectros Hechos un: 5 (USB4F02353)
El Alisar Del Furgón: 0 (USB4F02353)
Párrafo de de Corregir del la del del de Eléctrica del obscuridad: Sí (USB4F02353)
Estrobo/Lámpara Permitido: No (USB4F02353)
Correct for Detector Non-linearity: No (USB4F02353)
Párrafo de de Corregir del la del del de Externa del luz: No (USB4F02353)
Procesado del espectro de Número de pixeles en: 3648
>>>>> Comienza Data<<<<< Espectral Procesado Del EL
177,79	257,645
178,00	257,645
178,22	257,645
178,44	687,912
178,66	-163,660
178,88	148,208
179,09	-239,149
179,31	329,391
179,53	472,136
179,75	250,602
179,96	1066,379
180,18	-184,000
180,40	405,414
180,62	397,347
180,83	-266,116
181,05	-1354,878
181,27	-27400,000
181,49	132,174
181,70	455,000
181,92	568,528
182,14	738,554
182,36	88,719
182,58	239,000
182,79	861,607
183,01	-60,757
183,23	68,694
183,45	-372,308
183,66	113,717
183,88	791,176
184,10	-3083,636
184,32	7,673
184,53	215,173
184,75	-234,168
184,97	48,401
185,18	7,707
185,40	-547,115
185,62	54,592
185,84	-44,323
186,05	96,502
186,27	-72,626
186,49	2715,385
186,71	79,332
186,92	206,167
187,14	-252,161
187,36	133,804
187,58	83,209
187,79	30,851
188,01	187,017
188,23	-141,761
188,45	181,672
188,66	363,393
188,88	-3198,182
189,10	-2029,000
189,31	-66,724
189,53	-32,117
189,75	287,273
189,97	53,462
190,18	-114,163
190,40	844,118
190,62	-66,751
190,83	-118,093
191,05	251,033
191,27	158,000
191,49	404,208
191,70	-187,981
191,92	-338,983
192,14	6,039
192,35	585,942
192,57	2222,857
192,79	89,507
193,01	118,418
193,22	133,268
193,44	-83,618
193,66	139,868
193,87	201,285
194,09	2,503
194,31	120,828
194,53	852,448
194,74	112,419
194,96	54,604
195,18	175,740
195,39	-231,398
195,61	-112,661
195,83	-364,783
196,04	76,964
196,26	-96,985
196,48	-8,354
196,70	102,783
196,91	83,962
197,13	167,342
197,35	-2,361
197,56	547,368
197,78	1836,567
198,00	493,706
198,21	587,379
198,43	-918,023
198,65	137,041
198,86	260,432
199,08	399,672
199,30	288,664
199,51	-165,472
199,73	257,347
199,95	230,446
200,16	482,692
200,38	118,346
200,60	143,081
200,81	278,373
201,03	167,391
201,25	-1714,000
201,46	70,634
201,68	32,611
201,90	909,091
202,11	1,908
202,33	257,630
202,55	477,500
202,76	-82,838
202,98	220,906
203,20	54,327
203,41	-352,632
203,63	116,091
203,85	-135400,000
204,06	-63,805
204,28	-285,060
204,50	186,537
204,71	363,251
204,93	-544,000
205,15	296,687
205,36	-269,216
205,58	166,603
205,80	-77,996
206,01	57,640
206,23	50,000
206,45	206,616
206,66	173,806
206,88	-27,899
207,10	197,273
207,31	272,318
207,53	325,143
207,75	42,464
207,96	1178,358
208,18	-214,164
208,39	63,417
208,61	3328,571
208,83	-241,436
209,04	135,760
209,26	-292,166
209,48	240,557
209,69	263,387
209,91	740,203
210,13	94,366
210,34	173,123
210,56	196,664
210,77	-1909,449
210,99	127,309
211,21	9870,588
211,42	-154,307
211,64	31,262
211,86	124,386
212,07	333,526
212,29	236,121
212,50	151,781
212,72	403,077
212,94	169,790
213,15	114,286
213,37	144,131
213,58	-66,741
213,80	-1910,714
214,02	10294,118
214,23	99,270
214,45	641,639
214,67	587,805
214,88	-261,074
215,10	-175,000
215,31	-36,463
215,53	125,682
215,75	182,261
215,96	1757,764
216,18	-754,930
216,39	168,289
216,61	262,227
216,83	560,268
217,04	1126,966
217,26	7,903
217,47	183,920
217,69	315,795
217,91	101,031
218,12	-159700,000
218,34	123,280
218,55	335,279
218,77	20,998
218,99	214,128
219,20	-152,139
219,42	342,226
219,63	-12,367
219,85	-157,836
220,06	185,000
220,28	212,441
220,50	53,982
220,71	62,423
220,93	3471,698
221,14	-2299,000
221,36	69,790
221,58	123,636
221,79	136,077
222,01	1043,103
222,22	511,842
222,44	-278,652
222,65	85,961
222,87	292,308
223,09	108,425
223,30	57,428
223,52	83,805
223,73	98,236
223,95	-8,310
224,16	210,515
224,38	290,995
224,60	110,187
224,81	84,455
225,03	145,154
225,24	179,795
225,46	144,186
225,67	13,608
225,89	57,068
226,10	529,819
226,32	1133,600
226,54	-12,919
226,75	0,459
226,97	130,949
227,18	157,959
227,40	170,092
227,61	21,806
227,83	1,414
228,04	148,963
228,26	46,124
228,47	55,932
228,69	177,872
228,91	142,502
229,12	65,495
229,34	42,528
229,55	57,949
229,77	34,154
229,98	-9,498
230,20	48,562
230,41	49,107
230,63	78,701
230,84	4,698
231,06	39,955
231,27	34,736
231,49	39,107
231,71	21,919
231,92	27,771
232,14	35,693
232,35	82,382
232,57	68,000
232,78	29,098
233,00	35,915
233,21	51,972
233,43	31,813
233,64	23,559
233,86	50,132
234,07	35,090
234,29	19,352
234,50	9,218
234,72	32,263
234,93	28,845
235,15	38,675
235,36	35,676
235,58	47,260
235,79	48,431
236,01	30,961
236,22	3,746
236,44	48,050
236,65	20,732
236,87	33,405
237,08	16,352
237,30	2,380
237,51	18,357
237,73	15,910
237,94	11,944
238,16	25,284
238,37	32,047
238,59	14,309
238,80	20,468
239,02	8,035
239,23	18,791
239,45	5,305
239,66	19,575
239,88	34,007
240,09	36,495
240,31	4,957
240,52	5,311
240,74	28,592
240,95	24,108
241,17	17,627
241,38	13,641
241,60	17,881
241,81	23,596
242,03	8,939
242,24	14,610
242,46	23,158
242,67	8,120
242,89	12,975
243,10	18,902
243,32	21,871
243,53	15,744
243,75	10,981
243,96	11,995
244,18	23,397
244,39	11,919
244,60	10,676
244,82	8,228
245,03	21,605
245,25	14,597
245,46	20,292
245,68	2,691
245,89	18,664
246,11	18,567
246,32	15,604
246,54	11,996
246,75	16,128
246,97	10,378
247,18	24,650
247,39	13,674
247,61	12,950
247,82	19,567
248,04	8,886
248,25	14,175
248,47	18,863
248,68	19,052
248,90	6,682
249,11	18,082
249,33	26,329
249,54	15,874
249,75	10,544
249,97	9,743
250,18	19,771
250,40	18,820
250,61	2,481
250,83	10,215
251,04	6,770
251,25	17,419
251,47	7,719
251,68	13,896
251,90	14,120
252,11	15,224
252,33	13,413
252,54	14,013
252,76	13,708
252,97	8,022
253,18	7,262
253,40	8,217
253,61	6,150
253,83	15,659
254,04	12,848
254,25	12,006
254,47	7,173
254,68	10,832
254,90	12,892
255,11	9,592
255,33	17,144
255,54	6,732
255,75	10,311
255,97	8,612
256,18	7,902
256,40	15,070
256,61	8,989
256,82	4,512
257,04	20,484
257,25	9,791
257,47	10,513
257,68	8,976
257,89	13,828
258,11	12,006
258,32	13,941
258,54	11,959
258,75	16,068
258,96	16,192
259,18	11,281
259,39	8,568
259,61	11,000
259,82	9,777
260,03	13,415
260,25	9,245
260,46	8,305
260,68	10,027
260,89	7,898
261,10	12,853
261,32	11,026
261,53	10,244
261,75	12,683
261,96	1,100
262,17	15,474
262,39	15,793
262,60	11,288
262,81	6,871
263,03	15,869
263,24	9,007
263,46	2,847
263,67	6,597
263,88	9,009
264,10	12,039
264,31	4,954
264,52	10,540
264,74	14,374
264,95	5,973
265,17	8,631
265,38	9,839
265,59	13,975
265,81	13,030
266,02	4,638
266,23	5,656
266,45	14,199
266,66	16,017
266,87	10,771
267,09	7,178
267,30	11,650
267,52	12,807
267,73	10,679
267,94	11,913
268,16	13,338
268,37	13,680
268,58	10,592
268,80	11,412
269,01	9,275
269,22	11,136
269,44	12,271
269,65	11,167
269,86	8,306
270,08	10,372
270,29	4,370
270,50	10,027
270,72	11,116
270,93	8,637
271,14	7,467
271,36	10,435
271,57	8,237
271,78	11,409
272,00	9,165
272,21	13,248
272,42	9,385
272,64	13,326
272,85	9,437
273,06	7,994
273,28	11,774
273,49	11,965
273,70	11,116
273,92	11,299
274,13	12,725
274,34	8,938
274,56	14,049
274,77	9,130
274,98	12,319
275,20	12,173
275,41	12,258
275,62	11,382
275,84	11,560
276,05	19,390
276,26	8,302
276,47	5,780
276,69	11,144
276,90	11,207
277,11	9,442
277,33	6,675
277,54	7,987
277,75	11,455
277,97	7,769
278,18	14,277
278,39	13,930
278,61	8,640
278,82	12,392
279,03	11,734
279,24	8,261
279,46	9,789
279,67	11,170
279,88	8,091
280,10	14,948
280,31	6,491
280,52	9,970
280,73	5,387
280,95	10,538
281,16	13,674
281,37	7,677
281,59	14,656
281,80	18,576
282,01	10,732
282,22	8,581
282,44	10,489
282,65	16,317
282,86	9,937
283,08	9,080
283,29	10,309
283,50	10,681
283,71	11,903
283,93	11,239
284,14	13,209
284,35	8,618
284,56	10,279
284,78	7,445
284,99	10,032
285,20	12,976
285,42	8,978
285,63	10,226
285,84	7,491
286,05	10,145
286,27	8,368
286,48	9,086
286,69	6,152
286,90	10,124
287,12	10,592
287,33	8,247
287,54	8,168
287,75	9,163
287,97	10,454
288,18	9,896
288,39	7,046
288,60	10,520
288,82	9,429
289,03	9,421
289,24	9,512
289,45	10,693
289,67	11,605
289,88	10,635
290,09	12,825
290,30	11,713
290,52	7,786
290,73	7,119
290,94	3,667
291,15	9,250
291,37	11,099
291,58	9,855
291,79	9,913
292,00	10,910
292,21	11,091
292,43	9,091
292,64	8,973
292,85	8,368
293,06	12,866
293,28	9,292
293,49	6,003
293,70	11,996
293,91	5,543
294,12	10,988
294,34	10,304
294,55	9,115
294,76	8,646
294,97	10,083
295,19	5,729
295,40	7,959
295,61	11,078
295,82	5,914
296,03	8,634
296,25	9,966
296,46	6,837
296,67	4,194
296,88	3,656
297,09	12,075
297,31	9,613
297,52	9,024
297,73	8,995
297,94	13,161
298,15	13,456
298,37	8,235
298,58	9,551
298,79	9,903
299,00	6,969
299,21	9,772
299,43	8,594
299,64	14,252
299,85	11,473
300,06	7,864
300,27	6,370
300,49	11,795
300,70	10,832
300,91	7,119
301,12	8,164
301,33	11,220
301,54	9,641
301,76	10,360
301,97	7,484
302,18	8,121
302,39	11,338
302,60	10,662
302,82	10,743
303,03	12,586
303,24	9,133
303,45	7,920
303,66	9,515
303,87	8,956
304,09	11,802
304,30	6,451
304,51	6,734
304,72	9,966
304,93	9,838
305,14	9,377
305,36	6,183
305,57	6,927
305,78	10,732
305,99	9,623
306,20	9,596
306,41	6,552
306,62	7,748
306,84	7,716
307,05	5,297
307,26	9,741
307,47	10,495
307,68	6,668
307,89	6,971
308,11	12,493
308,32	8,342
308,53	8,929
308,74	5,427
308,95	7,685
309,16	11,594
309,37	11,301
309,59	6,559
309,80	11,367
310,01	9,731
310,22	12,394
310,43	7,998
310,64	12,854
310,85	9,597
311,06	8,765
311,28	9,675
311,49	9,597
311,70	12,342
311,91	8,378
312,12	7,308
312,33	10,742
312,54	9,030
312,75	9,111
312,97	6,838
313,18	11,195
313,39	6,754
313,60	7,231
313,81	6,628
314,02	9,043
314,23	10,305
314,44	5,674
314,65	10,357
314,87	6,506
315,08	9,297
315,29	10,468
315,50	8,738
315,71	10,877
315,92	13,956
316,13	9,048
316,34	7,906
316,55	11,717
316,77	6,142
316,98	8,436
317,19	9,098
317,40	10,780
317,61	10,874
317,82	8,278
318,03	7,735
318,24	8,253
318,45	13,809
318,66	8,225
318,87	6,217
319,09	12,158
319,30	10,381
319,51	9,817
319,72	11,403
319,93	11,957
320,14	10,117
320,35	10,599
320,56	6,689
320,77	3,148
320,98	12,782
321,19	8,118
321,40	10,051
321,62	11,650
321,83	8,264
322,04	9,884
322,25	8,442
322,46	12,174
322,67	13,475
322,88	12,593
323,09	8,465
323,30	11,138
323,51	12,077
323,72	13,473
323,93	7,153
324,14	8,649
324,35	5,427
324,56	4,283
324,77	7,033
324,99	8,118
325,20	5,249
325,41	8,293
325,62	7,657
325,83	6,186
326,04	9,048
326,25	11,162
326,46	6,590
326,67	9,575
326,88	10,680
327,09	8,370
327,30	7,979
327,51	11,361
327,72	9,810
327,93	11,111
328,14	8,013
328,35	6,386
328,56	10,667
328,77	9,056
328,98	9,718
329,19	9,186
329,40	11,399
329,61	7,826
329,82	7,059
330,04	8,631
330,25	8,948
330,46	9,964
330,67	5,911
330,88	10,187
331,09	10,470
331,30	7,306
331,51	10,256
331,72	11,202
331,93	13,732
332,14	7,237
332,35	9,905
332,56	9,967
332,77	13,054
332,98	4,661
333,19	7,397
333,40	11,170
333,61	10,457
333,82	9,648
334,03	10,661
334,24	12,159
334,45	9,449
334,66	10,364
334,87	11,253
335,08	5,364
335,29	8,546
335,50	5,768
335,71	5,492
335,92	9,695
336,13	12,345
336,34	5,864
336,55	10,086
336,76	11,952
336,97	9,179
337,18	8,027
337,39	11,219
337,60	7,723
337,81	10,266
338,02	11,020
338,23	10,137
338,44	8,153
338,65	7,992
338,86	8,643
339,07	7,518
339,28	13,055
339,49	10,524
339,70	8,015
339,91	8,506
340,11	12,046
340,32	7,095
340,53	6,604
340,74	8,060
340,95	8,100
341,16	10,848
341,37	8,380
341,58	5,797
341,79	9,158
342,00	9,404
342,21	7,906
342,42	7,495
342,63	9,222
342,84	7,344
343,05	9,259
343,26	11,405
343,47	9,414
343,68	6,527
343,89	7,989
344,10	10,095
344,31	13,008
344,52	9,233
344,73	6,138
344,94	9,749
345,14	8,780
345,35	12,538
345,56	10,620
345,77	10,759
345,98	9,395
346,19	8,244
346,40	11,213
346,61	9,876
346,82	9,221
347,03	9,388
347,24	9,603
347,45	6,845
347,66	14,540
347,87	9,688
348,08	12,382
348,28	6,058
348,49	8,890
348,70	9,493
348,91	7,195
349,12	5,461
349,33	22,511
349,54	10,590
349,75	10,233
349,96	9,789
350,17	11,048
350,38	8,929
350,59	11,166
350,80	7,655
351,00	9,835
351,21	11,440
351,42	6,689
351,63	8,069
351,84	11,549
352,05	12,638
352,26	8,923
352,47	9,006
352,68	12,089
352,89	10,371
353,09	11,716
353,30	8,380
353,51	8,761
353,72	13,283
353,93	12,287
354,14	2,387
354,35	9,148
354,56	9,847
354,77	9,143
354,98	4,649
355,18	10,122
355,39	16,307
355,60	7,346
355,81	9,958
356,02	7,866
356,23	9,312
356,44	10,568
356,65	11,527
356,85	16,271
357,06	12,194
357,27	10,116
357,48	8,259
357,69	10,682
357,90	9,176
358,11	7,326
358,32	7,710
358,52	12,018
358,73	9,762
358,94	9,768
359,15	11,325
359,36	12,587
359,57	9,025
359,78	10,330
359,98	5,808
360,19	6,520
360,40	10,942
360,61	10,073
360,82	10,938
361,03	11,157
361,24	10,188
361,44	7,999
361,65	11,216
361,86	7,229
362,07	9,697
362,28	8,052
362,49	8,015
362,70	10,559
362,90	11,480
363,11	6,777
363,32	5,561
363,53	11,450
363,74	13,581
363,95	10,765
364,15	10,267
364,36	13,251
364,57	7,198
364,78	8,097
364,99	7,426
365,20	9,465
365,40	11,072
365,61	6,925
365,82	11,438
366,03	8,580
366,24	10,337
366,45	9,181
366,65	8,690
366,86	12,716
367,07	12,566
367,28	6,393
367,49	9,693
367,69	12,227
367,90	9,027
368,11	8,807
368,32	6,717
368,53	10,457
368,73	11,857
368,94	9,045
369,15	9,709
369,36	12,619
369,57	12,423
369,78	7,257
369,98	12,793
370,19	16,597
370,40	11,598
370,61	8,902
370,82	9,771
371,02	12,600
371,23	12,756
371,44	9,516
371,65	9,537
371,85	15,117
372,06	10,952
372,27	11,806
372,48	9,694
372,69	11,681
372,89	6,075
373,10	10,173
373,31	8,979
373,52	11,215
373,73	15,437
373,93	9,757
374,14	11,320
374,35	11,797
374,56	11,788
374,76	9,290
374,97	7,995
375,18	10,197
375,39	10,039
375,60	13,969
375,80	8,658
376,01	12,029
376,22	13,942
376,43	9,516
376,63	12,696
376,84	11,737
377,05	12,495
377,26	7,274
377,46	9,873
377,67	13,004
377,88	12,473
378,09	10,443
378,29	5,283
378,50	11,965
378,71	9,234
378,92	7,618
379,12	10,509
379,33	9,717
379,54	12,063
379,75	13,785
379,95	12,938
380,16	13,823
380,37	15,281
380,58	12,378
380,78	13,250
380,99	13,312
381,20	9,615
381,41	10,730
381,61	12,892
381,82	11,953
382,03	14,301
382,24	10,172
382,44	10,626
382,65	10,458
382,86	12,843
383,06	11,815
383,27	13,504
383,48	10,637
383,69	12,230
383,89	12,124
384,10	10,450
384,31	13,732
384,51	13,322
384,72	11,204
384,93	10,801
385,14	13,396
385,34	11,789
385,55	12,519
385,76	10,700
385,96	15,308
386,17	13,183
386,38	16,109
386,59	17,045
386,79	12,314
387,00	16,372
387,21	16,070
387,41	14,869
387,62	13,347
387,83	16,291
388,03	12,727
388,24	9,276
388,45	14,843
388,66	15,517
388,86	13,338
389,07	9,525
389,28	18,232
389,48	14,277
389,69	15,473
389,90	9,979
390,10	15,260
390,31	19,323
390,52	7,582
390,72	12,935
390,93	14,666
391,14	14,129
391,34	17,087
391,55	13,928
391,76	16,926
391,96	15,623
392,17	13,825
392,38	16,283
392,58	16,445
392,79	17,755
393,00	11,998
393,20	13,327
393,41	16,792
393,62	15,770
393,82	15,880
394,03	13,099
394,24	15,510
394,44	20,237
394,65	16,781
394,86	17,772
395,06	19,794
395,27	16,009
395,48	14,484
395,68	17,785
395,89	19,179
396,10	19,905
396,30	16,987
396,51	15,517
396,72	16,830
396,92	14,928
397,13	20,502
397,34	15,338
397,54	19,054
397,75	15,464
397,95	15,954
398,16	17,527
398,37	19,820
398,57	18,843
398,78	19,539
398,99	20,371
399,19	19,615
399,40	17,987
399,60	18,688
399,81	17,271
400,02	16,255
400,22	21,525
400,43	20,799
400,64	17,559
400,84	18,353
401,05	19,947
401,25	19,790
401,46	18,361
401,67	18,620
401,87	19,929
402,08	16,213
402,29	20,895
402,49	26,181
402,70	20,444
402,90	17,181
403,11	17,661
403,32	22,394
403,52	21,642
403,73	21,934
403,93	22,896
404,14	24,312
404,35	21,244
404,55	19,538
404,76	18,042
404,96	23,650
405,17	23,508
405,38	23,622
405,58	20,757
405,79	19,683
405,99	27,261
406,20	20,269
406,40	17,982
406,61	24,325
406,82	22,094
407,02	22,121
407,23	20,192
407,43	23,426
407,64	20,241
407,85	19,736
408,05	16,314
408,26	30,672
408,46	27,064
408,67	21,196
408,87	21,506
409,08	23,722
409,29	27,395
409,49	24,571
409,70	22,452
409,90	24,120
410,11	28,101
410,31	24,838
410,52	24,572
410,72	22,259
410,93	26,775
411,14	24,580
411,34	22,606
411,55	29,414
411,75	26,871
411,96	25,177
412,16	25,870
412,37	26,665
412,57	28,144
412,78	26,627
412,99	24,956
413,19	31,655
413,40	26,276
413,60	19,645
413,81	21,719
414,01	26,390
414,22	24,424
414,42	22,042
414,63	21,082
414,83	26,913
415,04	24,431
415,24	29,186
415,45	29,068
415,65	24,889
415,86	26,589
416,07	27,771
416,27	27,102
416,48	29,711
416,68	28,793
416,89	24,797
417,09	29,272
417,30	28,600
417,50	28,254
417,71	25,747
417,91	25,805
418,12	27,676
418,32	27,254
418,53	27,694
418,73	28,239
418,94	27,629
419,14	28,607
419,35	24,310
419,55	28,251
419,76	31,318
419,96	28,506
420,17	26,103
420,37	26,071
420,58	28,995
420,78	26,681
420,99	29,193
421,19	30,644
421,40	26,667
421,60	31,492
421,81	27,038
422,01	27,567
422,22	26,146
422,42	32,114
422,63	25,272
422,83	24,738
423,04	31,568
423,24	33,401
423,45	25,524
423,65	33,373
423,86	33,649
424,06	28,493
424,27	28,541
424,47	27,236
424,67	28,681
424,88	30,608
425,08	29,385
425,29	34,553
425,49	24,915
425,70	27,730
425,90	29,825
426,11	27,142
426,31	26,900
426,52	31,896
426,72	26,995
426,93	29,436
427,13	31,736
427,33	27,880
427,54	30,482
427,74	31,520
427,95	32,935
428,15	29,060
428,36	28,924
428,56	28,742
428,77	29,506
428,97	30,905
429,18	31,080
429,38	27,435
429,58	31,933
429,79	32,906
429,99	27,773
430,20	23,013
430,40	33,681
430,61	30,105
430,81	28,073
431,01	29,030
431,22	32,261
431,42	34,511
431,63	31,113
431,83	27,609
432,04	31,713
432,24	35,656
432,44	28,649
432,65	25,407
432,85	31,351
433,06	27,315
433,26	31,140
433,47	26,332
433,67	28,637
433,87	27,938
434,08	26,169
434,28	27,343
434,49	25,793
434,69	31,473
434,89	26,529
435,10	25,917
435,30	34,084
435,51	24,108
435,71	30,733
435,91	24,318
436,12	27,702
436,32	28,536
436,53	30,062
436,73	28,548
436,93	30,397
437,14	28,974
437,34	30,215
437,55	31,275
437,75	29,133
437,95	31,497
438,16	30,288
438,36	26,918
438,57	29,901
438,77	27,600
438,97	31,535
439,18	33,279
439,38	28,178
439,58	29,995
439,79	32,096
439,99	26,489
440,20	36,232
440,40	32,138
440,60	30,060
440,81	33,131
441,01	28,222
441,21	30,984
441,42	30,425
441,62	34,252
441,83	33,279
442,03	29,777
442,23	32,534
442,44	27,991
442,64	32,286
442,84	26,358
443,05	30,293
443,25	31,076
443,45	29,301
443,66	31,557
443,86	29,499
444,06	32,778
444,27	30,478
444,47	29,316
444,67	28,449
444,88	32,212
445,08	33,724
445,28	28,698
445,49	30,410
445,69	27,730
445,90	31,460
446,10	36,421
446,30	30,404
446,51	32,710
446,71	35,855
446,91	35,657
447,12	34,321
447,32	32,966
447,52	34,004
447,72	32,560
447,93	31,602
448,13	31,629
448,33	39,682
448,54	35,506
448,74	27,926
