Fichero De Datos De SpectraSuite
++++++++++++++++++++++++++++++++++++
Fecha: Wed Apr 22 11:33:00 CEST 2009
Usuario: evoflor
Presente Oscuro Del Espectro: Sí
La Referencia de Presente Del Espectro De: Sí
Muestreados de los componentes de Número de espectros: 1
Espectrómetros: USB4F02353
Tiempo de integración (usec): 500000 (USB4F02353)
Promedio de Espectros Hechos un: 5 (USB4F02353)
El Alisar Del Furgón: 0 (USB4F02353)
Párrafo de de Corregir del la del del de Eléctrica del obscuridad: Sí (USB4F02353)
Estrobo/Lámpara Permitido: No (USB4F02353)
Correct for Detector Non-linearity: No (USB4F02353)
Párrafo de de Corregir del la del del de Externa del luz: No (USB4F02353)
Procesado del espectro de Número de pixeles en: 3648
>>>>> Comienza Data<<<<< Espectral Procesado Del EL
177,79	220,406
178,00	220,406
178,22	220,406
178,44	632,747
178,66	-226,737
178,88	228,599
179,09	-735,404
179,31	233,252
179,53	387,368
179,75	208,795
179,96	884,655
180,18	-276,985
180,40	372,675
180,62	413,050
180,83	-148,678
181,05	10,732
181,27	-22520,000
181,49	29,304
181,70	380,846
181,92	580,305
182,14	558,494
182,36	44,704
182,58	-144,200
182,79	1185,357
183,01	-89,862
183,23	122,878
183,45	88,554
183,66	226,903
183,88	323,059
184,10	-3093,091
184,32	-69,010
184,53	201,618
184,75	-257,639
184,97	-12,806
185,18	-145,526
185,40	-571,250
185,62	172,673
185,84	37,380
186,05	188,903
186,27	-165,376
186,49	3116,154
186,71	1,463
186,92	103,410
187,14	-246,427
187,36	145,384
187,58	60,663
187,79	-15,076
188,01	267,110
188,23	-595,795
188,45	27,460
188,66	333,571
188,88	-1309,455
189,10	-1566,200
189,31	4,573
189,53	137,993
189,75	276,182
189,97	228,538
190,18	231,845
190,40	1244,235
190,62	-158,741
190,83	-301,206
191,05	248,998
191,27	239,200
191,49	398,812
191,70	-56,346
191,92	-663,729
192,14	-25,595
192,35	477,507
192,57	206,286
192,79	-80,899
193,01	163,560
193,22	89,488
193,44	-87,577
193,66	138,274
193,87	69,422
194,09	-51,926
194,31	178,959
194,53	1038,601
194,74	171,323
194,96	72,532
195,18	136,477
195,39	-448,865
195,61	-91,670
195,83	-297,435
196,04	128,242
196,26	-40,804
196,48	97,606
196,70	264,851
196,91	28,906
197,13	264,354
197,35	3,069
197,56	548,978
197,78	1833,731
198,00	623,217
198,21	581,165
198,43	-795,465
198,65	174,971
198,86	349,712
199,08	53,180
199,30	92,955
199,51	-313,746
199,73	204,165
199,95	98,069
200,16	661,231
200,38	276,120
200,60	132,268
200,81	161,927
201,03	41,630
201,25	-1503,200
201,46	120,312
201,68	116,230
201,90	2250,455
202,11	-240,534
202,33	143,842
202,55	292,750
202,76	16,453
202,98	91,010
203,20	73,462
203,41	-175,368
203,63	134,147
203,85	-114320,000
204,06	-52,158
204,28	-2,217
204,50	173,873
204,71	229,011
204,93	295,360
205,15	241,325
205,36	-345,927
205,58	264,338
205,80	-53,166
206,01	17,589
206,23	142,544
206,45	199,348
206,66	163,855
206,88	31,731
207,10	182,091
207,31	339,762
207,53	280,343
207,75	30,167
207,96	1061,343
208,18	-70,683
208,39	116,651
208,61	4140,571
208,83	-318,630
209,04	154,218
209,26	-593,180
209,48	180,755
209,69	151,000
209,91	440,946
210,13	86,746
210,34	292,058
210,56	156,305
210,77	-1084,409
210,99	102,800
211,21	7465,882
211,42	-172,146
211,64	-10,126
211,86	206,252
212,07	132,688
212,29	192,757
212,50	125,178
212,72	245,846
212,94	152,119
213,15	73,794
213,37	127,114
213,58	-137,738
213,80	-740,000
214,02	15142,353
214,23	344,927
214,45	457,443
214,67	-1723,415
214,88	-90,671
215,10	-328,028
215,31	3,974
215,53	-22,455
215,75	237,948
215,96	1582,112
216,18	165,070
216,39	296,690
216,61	387,162
216,83	12,143
217,04	1456,404
217,26	36,323
217,47	101,536
217,69	215,261
217,91	74,175
218,12	-91820,000
218,34	115,619
218,55	327,109
218,77	41,185
218,99	137,996
219,20	-168,476
219,42	411,616
219,63	134,286
219,85	-104,882
220,06	93,538
220,28	147,615
220,50	88,774
220,71	40,046
220,93	3702,264
221,14	-1872,200
221,36	77,400
221,58	-36,036
221,79	63,245
222,01	876,897
222,22	414,605
222,44	-222,247
222,65	139,006
222,87	1070,070
223,09	176,533
223,30	67,263
223,52	209,873
223,73	180,760
223,95	107,775
224,16	170,763
224,38	264,502
224,60	107,092
224,81	94,014
225,03	159,604
225,24	159,473
225,46	73,289
225,67	18,911
225,89	73,063
226,10	553,072
226,32	331,360
226,54	54,473
226,75	24,794
226,97	109,008
227,18	156,299
227,40	46,948
227,61	99,521
227,83	28,933
228,04	110,556
228,26	57,807
228,47	47,139
228,69	277,533
228,91	189,494
229,12	65,222
229,34	35,995
229,55	50,806
229,77	1,918
229,98	5,839
230,20	77,649
230,41	7,756
230,63	88,484
230,84	12,100
231,06	18,893
231,27	24,651
231,49	59,229
231,71	14,399
231,92	23,268
232,14	11,949
232,35	61,648
232,57	31,854
232,78	18,222
233,00	62,849
233,21	74,114
233,43	-0,240
233,64	20,959
233,86	54,495
234,07	35,789
234,29	8,078
234,50	21,272
234,72	43,340
234,93	7,604
235,15	23,922
235,36	23,021
235,58	17,621
235,79	45,216
236,01	18,779
236,22	17,579
236,44	49,335
236,65	22,303
236,87	30,217
237,08	18,292
237,30	1,420
237,51	17,495
237,73	6,971
237,94	23,371
238,16	26,088
238,37	10,971
238,59	16,269
238,80	15,184
239,02	16,083
239,23	24,337
239,45	6,475
239,66	33,100
239,88	33,413
240,09	25,784
240,31	1,390
240,52	13,126
240,74	13,626
240,95	11,091
241,17	6,117
241,38	6,367
241,60	8,921
241,81	29,952
242,03	8,344
242,24	15,462
242,46	27,811
242,67	9,422
242,89	17,921
243,10	27,145
243,32	25,090
243,53	20,157
243,75	11,465
243,96	11,444
244,18	14,122
244,39	20,473
244,60	16,039
244,82	9,428
245,03	24,777
245,25	14,567
245,46	25,123
245,68	14,668
245,89	18,352
246,11	17,196
246,32	15,443
246,54	12,733
246,75	15,173
246,97	16,728
247,18	25,109
247,39	15,858
247,61	8,154
247,82	20,363
248,04	8,805
248,25	16,350
248,47	18,320
248,68	14,493
248,90	10,044
249,11	17,848
249,33	23,775
249,54	15,962
249,75	19,136
249,97	14,288
250,18	20,224
250,40	19,594
250,61	1,144
250,83	7,418
251,04	7,379
251,25	19,304
251,47	7,497
251,68	14,823
251,90	15,612
252,11	17,715
252,33	11,370
252,54	13,572
252,76	13,181
252,97	8,335
253,18	7,387
253,40	10,685
253,61	9,930
253,83	14,016
254,04	15,630
254,25	13,661
254,47	6,972
254,68	14,079
254,90	11,542
255,11	14,318
255,33	12,559
255,54	13,517
255,75	9,084
255,97	14,439
256,18	10,437
256,40	9,804
256,61	8,671
256,82	8,572
257,04	13,114
257,25	7,986
257,47	12,882
257,68	6,730
257,89	16,806
258,11	17,027
258,32	14,007
258,54	11,606
258,75	16,935
258,96	17,862
259,18	10,120
259,39	11,514
259,61	14,699
259,82	10,969
260,03	14,032
260,25	9,754
260,46	8,169
260,68	12,137
260,89	10,801
261,10	10,406
261,32	11,050
261,53	10,696
261,75	16,102
261,96	11,020
262,17	19,147
262,39	16,517
262,60	7,365
262,81	6,978
263,03	16,648
263,24	11,937
263,46	10,292
263,67	13,506
263,88	10,954
264,10	12,288
264,31	7,177
264,52	11,470
264,74	10,769
264,95	10,358
265,17	12,605
265,38	11,294
265,59	12,578
265,81	16,186
266,02	8,444
266,23	6,637
266,45	17,266
266,66	14,108
266,87	13,970
267,09	6,803
267,30	17,339
267,52	18,328
267,73	13,877
267,94	8,068
268,16	11,680
268,37	11,943
268,58	13,619
268,80	8,060
269,01	13,353
269,22	13,169
269,44	10,474
269,65	11,649
269,86	11,484
270,08	15,895
270,29	11,583
270,50	12,152
270,72	14,527
270,93	10,965
271,14	10,739
271,36	8,585
271,57	12,784
271,78	11,356
272,00	16,313
272,21	13,778
272,42	15,978
272,64	14,576
272,85	7,772
273,06	8,621
273,28	14,396
273,49	13,887
273,70	12,031
273,92	11,354
274,13	14,173
274,34	8,667
274,56	15,737
274,77	9,934
274,98	15,662
275,20	12,836
275,41	11,659
275,62	12,619
275,84	13,159
276,05	17,964
276,26	9,663
276,47	5,553
276,69	14,838
276,90	12,154
277,11	13,219
277,33	8,465
277,54	12,601
277,75	14,842
277,97	10,087
278,18	10,519
278,39	14,478
278,61	11,663
278,82	13,264
279,03	9,988
279,24	11,246
279,46	10,606
279,67	14,798
279,88	9,523
280,10	13,810
280,31	6,186
280,52	12,201
280,73	7,780
280,95	16,958
281,16	16,329
281,37	10,889
281,59	13,285
281,80	18,531
282,01	10,952
282,22	8,911
282,44	9,020
282,65	19,501
282,86	13,221
283,08	10,132
283,29	12,993
283,50	12,324
283,71	13,235
283,93	11,493
284,14	14,531
284,35	10,118
284,56	12,132
284,78	6,912
284,99	11,256
285,20	13,142
285,42	12,186
285,63	8,447
285,84	6,924
286,05	10,679
286,27	12,390
286,48	8,359
286,69	9,443
286,90	10,954
287,12	11,154
287,33	11,122
287,54	10,036
287,75	12,722
287,97	12,245
288,18	10,886
288,39	10,305
288,60	11,767
288,82	12,547
289,03	10,798
289,24	10,623
289,45	12,522
289,67	9,647
289,88	6,221
290,09	12,076
290,30	14,004
290,52	8,208
290,73	8,830
290,94	5,140
291,15	8,673
291,37	13,806
291,58	10,424
291,79	11,664
292,00	11,725
292,21	13,542
292,43	10,701
292,64	9,374
292,85	8,490
293,06	13,807
293,28	7,730
293,49	8,473
293,70	13,506
293,91	8,582
294,12	10,590
294,34	12,906
294,55	11,546
294,76	10,635
294,97	13,133
295,19	7,623
295,40	12,331
295,61	9,922
295,82	6,573
296,03	10,511
296,25	11,588
296,46	10,200
296,67	6,904
296,88	6,328
297,09	13,146
297,31	11,761
297,52	8,408
297,73	7,021
297,94	13,249
298,15	11,904
298,37	10,336
298,58	10,567
298,79	11,002
299,00	6,933
299,21	9,484
299,43	7,805
299,64	12,565
299,85	9,308
300,06	7,737
300,27	10,624
300,49	13,956
300,70	11,391
300,91	8,726
301,12	9,397
301,33	12,895
301,54	10,053
301,76	10,936
301,97	9,784
302,18	8,682
302,39	12,123
302,60	10,915
302,82	10,561
303,03	11,878
303,24	11,539
303,45	11,467
303,66	9,729
303,87	11,135
304,09	12,199
304,30	7,510
304,51	9,124
304,72	9,552
304,93	11,285
305,14	11,965
305,36	7,905
305,57	7,814
305,78	10,599
305,99	7,662
306,20	9,806
306,41	10,301
306,62	9,528
306,84	8,432
307,05	7,441
307,26	8,310
307,47	15,690
307,68	10,448
307,89	11,210
308,11	11,081
308,32	9,244
308,53	9,085
308,74	6,131
308,95	9,842
309,16	13,343
309,37	12,048
309,59	9,971
309,80	10,491
310,01	9,576
310,22	9,754
310,43	10,368
310,64	10,910
310,85	14,356
311,06	9,818
311,28	10,393
311,49	9,514
311,70	13,903
311,91	7,935
312,12	11,515
312,33	10,015
312,54	12,241
312,75	9,921
312,97	8,955
313,18	13,920
313,39	7,255
313,60	10,315
313,81	11,101
314,02	10,044
314,23	13,402
314,44	5,760
314,65	9,210
314,87	8,852
315,08	9,613
315,29	9,159
315,50	10,953
315,71	11,586
315,92	15,309
316,13	10,611
316,34	12,821
316,55	10,876
316,77	5,071
316,98	8,202
317,19	9,136
317,40	11,357
317,61	11,441
317,82	9,347
318,03	6,921
318,24	9,294
318,45	13,121
318,66	10,256
318,87	7,208
319,09	11,520
319,30	11,239
319,51	11,797
319,72	13,721
319,93	10,973
320,14	10,828
320,35	10,511
320,56	9,286
320,77	6,435
320,98	14,425
321,19	10,680
321,40	10,169
321,62	9,306
321,83	9,628
322,04	11,150
322,25	10,283
322,46	15,793
322,67	12,049
322,88	8,701
323,09	10,433
323,30	11,284
323,51	14,385
323,72	11,823
323,93	7,422
324,14	8,741
324,35	4,956
324,56	6,169
324,77	8,760
324,99	10,704
325,20	7,592
325,41	9,351
325,62	9,606
325,83	9,053
326,04	9,585
326,25	10,506
326,46	8,741
326,67	10,878
326,88	9,898
327,09	9,174
327,30	10,266
327,51	11,717
327,72	12,411
327,93	11,758
328,14	7,410
328,35	10,457
328,56	11,282
328,77	9,689
328,98	11,608
329,19	9,878
329,40	11,722
329,61	9,126
329,82	6,635
330,04	9,727
330,25	5,546
330,46	9,953
330,67	6,650
330,88	9,550
331,09	9,162
331,30	8,250
331,51	10,033
331,72	13,336
331,93	12,217
332,14	8,769
332,35	10,377
332,56	9,876
332,77	13,411
332,98	6,541
333,19	7,307
333,40	11,423
333,61	9,156
333,82	13,889
334,03	9,342
334,24	13,561
334,45	8,768
334,66	9,214
334,87	10,711
335,08	8,241
335,29	6,706
335,50	8,595
335,71	7,159
335,92	11,959
336,13	13,486
336,34	5,934
336,55	11,957
336,76	10,242
336,97	10,392
337,18	7,567
337,39	7,289
337,60	11,910
337,81	10,365
338,02	7,202
338,23	7,689
338,44	10,190
338,65	10,088
338,86	10,829
339,07	7,161
339,28	11,368
339,49	11,156
339,70	7,471
339,91	10,605
340,11	13,861
340,32	10,204
340,53	4,315
340,74	7,086
340,95	6,476
341,16	10,729
341,37	7,281
341,58	7,806
341,79	8,735
342,00	6,841
342,21	10,282
342,42	5,525
342,63	9,183
342,84	8,068
343,05	8,732
343,26	10,086
343,47	10,955
343,68	8,264
343,89	7,210
344,10	10,084
344,31	12,313
344,52	9,834
344,73	7,373
344,94	9,044
345,14	11,002
345,35	10,604
345,56	11,437
345,77	9,906
345,98	11,908
346,19	10,881
346,40	9,511
346,61	9,641
346,82	9,519
347,03	9,432
347,24	10,910
347,45	8,234
347,66	11,475
347,87	8,717
348,08	9,879
348,28	8,356
348,49	11,621
348,70	10,006
348,91	10,359
349,12	5,591
349,33	24,478
349,54	10,398
349,75	12,082
349,96	8,384
350,17	10,464
350,38	5,438
350,59	11,386
350,80	8,946
351,00	13,250
351,21	12,244
351,42	9,149
351,63	9,409
351,84	11,385
352,05	12,569
352,26	7,790
352,47	10,395
352,68	11,223
352,89	12,046
353,09	11,704
353,30	6,020
353,51	9,827
353,72	13,659
353,93	10,696
354,14	7,274
354,35	11,329
354,56	9,747
354,77	8,065
354,98	4,038
355,18	10,786
355,39	16,011
355,60	8,777
355,81	10,561
356,02	11,523
356,23	11,183
356,44	9,146
356,65	9,152
356,85	14,884
357,06	10,215
357,27	10,874
357,48	8,427
357,69	10,375
357,90	11,014
358,11	3,628
358,32	8,533
358,52	12,094
358,73	7,386
358,94	7,063
359,15	12,215
359,36	12,350
359,57	10,135
359,78	10,652
359,98	9,037
360,19	8,615
360,40	10,606
360,61	11,384
360,82	10,038
361,03	12,800
361,24	12,305
361,44	9,499
361,65	5,783
361,86	9,273
362,07	9,777
362,28	9,647
362,49	6,755
362,70	10,191
362,90	9,453
363,11	4,747
363,32	7,859
363,53	10,324
363,74	12,019
363,95	13,426
364,15	9,312
364,36	13,268
364,57	7,719
364,78	10,283
364,99	8,644
365,20	12,238
365,40	13,342
365,61	7,664
365,82	11,336
366,03	10,581
366,24	11,655
366,45	8,878
366,65	8,530
366,86	10,175
367,07	11,500
367,28	10,569
367,49	10,363
367,69	13,833
367,90	11,183
368,11	7,878
368,32	7,301
368,53	13,670
368,73	12,168
368,94	8,762
369,15	7,379
369,36	15,211
369,57	12,473
369,78	9,960
369,98	12,629
370,19	12,219
370,40	8,306
370,61	10,722
370,82	10,305
371,02	12,742
371,23	13,786
371,44	8,682
371,65	11,990
371,85	12,048
372,06	10,189
372,27	6,897
372,48	8,890
372,69	6,820
372,89	7,951
373,10	5,419
373,31	9,030
373,52	11,414
373,73	11,491
373,93	11,272
374,14	7,925
374,35	10,776
374,56	11,075
374,76	9,157
374,97	7,294
375,18	11,786
375,39	11,604
375,60	12,392
375,80	13,496
376,01	9,336
376,22	14,795
376,43	11,410
376,63	9,338
376,84	11,473
377,05	12,160
377,26	7,836
377,46	6,174
377,67	8,949
377,88	13,489
378,09	10,584
378,29	9,399
378,50	13,079
378,71	14,560
378,92	9,898
379,12	11,032
379,33	10,684
379,54	10,835
379,75	12,893
379,95	9,725
380,16	13,167
380,37	12,658
380,58	10,335
380,78	11,368
380,99	8,601
381,20	9,151
381,41	12,370
381,61	13,682
381,82	13,127
382,03	10,658
382,24	9,934
382,44	11,689
382,65	13,110
382,86	14,353
383,06	13,160
383,27	11,947
383,48	11,368
383,69	13,760
383,89	11,337
384,10	13,078
384,31	12,600
384,51	12,155
384,72	13,517
384,93	12,892
385,14	13,610
385,34	12,706
385,55	12,702
385,76	8,983
385,96	13,403
386,17	13,995
386,38	15,517
386,59	15,013
386,79	11,120
387,00	13,877
387,21	12,384
387,41	16,924
387,62	11,175
387,83	17,216
388,03	12,844
388,24	9,595
388,45	13,584
388,66	13,922
388,86	13,391
389,07	13,030
389,28	17,638
389,48	12,917
389,69	11,243
389,90	12,259
390,10	15,883
390,31	16,102
390,52	9,958
390,72	10,376
390,93	13,591
391,14	13,110
391,34	14,095
391,55	16,239
391,76	19,146
391,96	13,402
392,17	10,839
392,38	14,888
392,58	14,853
392,79	15,004
393,00	12,051
393,20	13,022
393,41	16,186
393,62	14,446
393,82	14,837
394,03	16,290
394,24	14,450
394,44	17,181
394,65	17,030
394,86	13,343
395,06	18,037
395,27	14,311
395,48	15,988
395,68	18,832
395,89	18,369
396,10	18,688
396,30	13,079
396,51	13,384
396,72	20,663
396,92	14,542
397,13	18,670
397,34	12,360
397,54	17,324
397,75	14,034
397,95	11,083
398,16	16,770
398,37	13,821
398,57	16,177
398,78	18,478
398,99	17,674
399,19	15,865
399,40	19,249
399,60	12,405
399,81	15,439
400,02	19,139
400,22	19,155
400,43	14,842
400,64	16,246
400,84	14,574
401,05	19,070
401,25	18,886
401,46	17,601
401,67	19,570
401,87	18,289
402,08	15,106
402,29	18,087
402,49	17,726
402,70	20,797
402,90	12,336
403,11	14,849
403,32	16,969
403,52	17,626
403,73	17,173
403,93	19,982
404,14	23,263
404,35	17,994
404,55	16,097
404,76	14,498
404,96	15,005
405,17	19,595
405,38	21,170
405,58	16,761
405,79	24,022
405,99	19,740
406,20	17,347
406,40	13,925
406,61	23,204
406,82	22,986
407,02	22,469
407,23	20,107
407,43	18,174
407,64	17,549
407,85	19,755
408,05	17,985
408,26	26,519
408,46	23,117
408,67	15,684
408,87	18,034
409,08	18,353
409,29	26,562
409,49	24,381
409,70	20,814
409,90	19,855
410,11	21,580
410,31	21,602
410,52	21,174
410,72	18,035
410,93	22,967
411,14	17,895
411,34	17,140
411,55	21,812
411,75	24,473
411,96	23,128
412,16	21,639
412,37	17,358
412,57	21,097
412,78	23,585
412,99	20,463
413,19	24,770
413,40	19,462
413,60	18,619
413,81	18,041
414,01	23,488
414,22	19,228
414,42	22,360
414,63	16,083
414,83	25,107
415,04	25,303
415,24	25,436
415,45	21,352
415,65	22,085
415,86	24,192
416,07	19,565
416,27	24,694
416,48	23,579
416,68	27,310
416,89	16,864
417,09	20,321
417,30	25,627
417,50	23,691
417,71	24,089
417,91	23,738
418,12	20,039
418,32	18,364
418,53	24,211
418,73	23,258
418,94	20,868
419,14	24,614
419,35	21,104
419,55	23,590
419,76	23,717
419,96	24,856
420,17	19,187
420,37	24,426
420,58	27,336
420,78	22,956
420,99	22,321
421,19	25,206
421,40	25,259
421,60	27,232
421,81	22,794
422,01	25,047
422,22	26,238
422,42	27,956
422,63	23,583
422,83	21,271
423,04	23,795
423,24	27,865
423,45	21,234
423,65	25,873
423,86	26,513
424,06	24,390
424,27	20,285
424,47	22,075
424,67	19,399
424,88	23,634
425,08	24,781
425,29	27,549
425,49	20,569
425,70	16,057
425,90	24,320
426,11	23,664
426,31	22,344
426,52	22,900
426,72	24,725
426,93	22,729
427,13	26,705
427,33	21,545
427,54	26,689
427,74	26,612
427,95	28,870
428,15	22,782
428,36	23,934
428,56	25,937
428,77	27,404
428,97	23,793
429,18	23,896
429,38	21,364
429,58	24,342
429,79	23,816
429,99	23,956
430,20	18,924
430,40	26,947
430,61	27,655
430,81	20,819
431,01	26,953
431,22	26,265
431,42	29,969
431,63	21,902
431,83	23,836
432,04	24,949
432,24	26,301
432,44	23,049
432,65	21,091
432,85	25,479
433,06	27,664
433,26	23,848
433,47	21,835
433,67	24,760
433,87	22,111
434,08	21,540
434,28	23,876
434,49	23,138
434,69	27,067
434,89	22,149
435,10	19,155
435,30	27,646
435,51	22,295
435,71	21,841
435,91	23,806
436,12	22,812
436,32	23,646
436,53	24,522
436,73	22,287
436,93	25,199
437,14	26,321
437,34	27,470
437,55	24,010
437,75	27,860
437,95	27,883
438,16	24,574
438,36	24,182
438,57	22,086
438,77	22,627
438,97	29,958
439,18	29,766
439,38	24,975
439,58	26,661
439,79	25,906
439,99	24,026
440,20	28,966
440,40	27,612
440,60	29,015
440,81	31,057
441,01	23,404
441,21	25,118
441,42	29,218
441,62	27,796
441,83	30,236
442,03	26,046
442,23	26,354
442,44	27,094
442,64	28,710
442,84	22,963
443,05	25,675
443,25	24,959
443,45	27,550
443,66	24,696
443,86	21,516
444,06	25,157
444,27	28,619
444,47	27,426
444,67	24,425
444,88	25,178
445,08	26,880
445,28	25,598
445,49	26,581
445,69	27,506
445,90	27,758
446,10	27,632
446,30	28,608
446,51	26,967
446,71	30,529
446,91	30,945
447,12	31,026
447,32	27,363
447,52	31,011
447,72	27,689
