Fichero De Datos De SpectraSuite
++++++++++++++++++++++++++++++++++++
Fecha: Wed Apr 22 11:30:20 CEST 2009
Usuario: evoflor
Presente Oscuro Del Espectro: Sí
La Referencia de Presente Del Espectro De: Sí
Muestreados de los componentes de Número de espectros: 1
Espectrómetros: USB4F02353
Tiempo de integración (usec): 500000 (USB4F02353)
Promedio de Espectros Hechos un: 5 (USB4F02353)
El Alisar Del Furgón: 0 (USB4F02353)
Párrafo de de Corregir del la del del de Eléctrica del obscuridad: Sí (USB4F02353)
Estrobo/Lámpara Permitido: No (USB4F02353)
Correct for Detector Non-linearity: No (USB4F02353)
Párrafo de de Corregir del la del del de Externa del luz: No (USB4F02353)
Procesado del espectro de Número de pixeles en: 3648
>>>>> Comienza Data<<<<< Espectral Procesado Del EL
177,79	219,526
178,00	219,526
178,22	219,526
178,44	1169,560
178,66	-184,430
178,88	361,336
179,09	-106,255
179,31	389,339
179,53	570,495
179,75	237,861
179,96	541,121
180,18	133,631
180,40	231,433
180,62	390,902
180,83	-138,554
181,05	-1950,854
181,27	-166270,000
181,49	-95,370
181,70	407,577
181,92	1072,437
182,14	639,066
182,36	52,065
182,58	164,300
182,79	734,241
183,01	-50,921
183,23	310,786
183,45	-140,523
183,66	5,000
183,88	734,529
184,10	-3301,273
184,32	393,738
184,53	173,945
184,75	-67,209
184,97	25,782
185,18	-231,335
185,40	-630,625
185,62	134,765
185,84	34,869
186,05	161,320
186,27	-138,434
186,49	1929,615
186,71	84,054
186,92	135,756
187,14	-139,726
187,36	146,752
187,58	45,957
187,79	-80,350
188,01	259,768
188,23	-293,381
188,45	78,505
188,66	440,938
188,88	-437,636
189,10	-1248,700
189,31	-62,577
189,53	-94,033
189,75	418,795
189,97	248,346
190,18	-178,670
190,40	872,176
190,62	-139,975
190,83	-241,187
191,05	172,766
191,27	289,914
191,49	242,252
191,70	-327,740
191,92	-348,898
192,14	-55,746
192,35	550,849
192,57	3182,000
192,79	-87,216
193,01	43,103
193,22	169,852
193,44	-61,041
193,66	145,991
193,87	16,852
194,09	-29,129
194,31	161,621
194,53	545,944
194,74	34,468
194,96	-6,049
195,18	156,440
195,39	-462,454
195,61	-150,890
195,83	-281,239
196,04	109,501
196,26	-206,884
196,48	15,998
196,70	201,730
196,91	-112,509
197,13	190,810
197,35	-59,578
197,56	629,009
197,78	1522,910
198,00	199,790
198,21	619,272
198,43	-1102,733
198,65	136,431
198,86	106,007
199,08	-24,361
199,30	343,866
199,51	-263,094
199,73	184,551
199,95	429,381
200,16	556,423
200,38	26,722
200,60	120,357
200,81	271,242
201,03	165,679
201,25	-1266,700
201,46	144,654
201,68	48,982
201,90	1508,409
202,11	-473,168
202,33	94,919
202,55	300,875
202,76	-50,195
202,98	165,401
203,20	-158,990
203,41	-131,421
203,63	117,354
203,85	-117670,000
204,06	-15,151
204,28	-116,554
204,50	163,093
204,71	234,929
204,93	336,560
205,15	275,813
205,36	-276,616
205,58	196,488
205,80	-242,701
206,01	99,126
206,23	80,667
206,45	217,229
206,66	81,359
206,88	-57,092
207,10	289,932
207,31	320,358
207,53	35,343
207,75	61,089
207,96	696,791
208,18	-150,119
208,39	126,686
208,61	1562,000
208,83	-467,977
209,04	323,276
209,26	-359,770
209,48	205,308
209,69	134,629
209,91	467,466
210,13	59,207
210,34	-20,169
210,56	147,622
210,77	-1904,488
210,99	195,501
211,21	8033,529
211,42	-16,745
211,64	-59,927
211,86	320,736
212,07	240,275
212,29	273,594
212,50	126,357
212,72	120,269
212,94	161,357
213,15	151,487
213,37	122,921
213,58	-89,290
213,80	-2241,786
214,02	12957,059
214,23	242,646
214,45	459,574
214,67	1352,805
214,88	-147,215
215,10	-199,243
215,31	-51,594
215,53	-4,614
215,75	303,252
215,96	1435,217
216,18	-244,085
216,39	176,175
216,61	378,755
216,83	272,187
217,04	947,978
217,26	15,597
217,47	143,096
217,69	251,023
217,91	79,459
218,12	-37570,000
218,34	74,048
218,55	216,631
218,77	97,994
218,99	109,790
219,20	-187,393
219,42	394,771
219,63	-26,375
219,85	-102,039
220,06	-42,423
220,28	135,504
220,50	61,150
220,71	71,603
220,93	3222,075
221,14	-2085,700
221,36	-37,419
221,58	-92,855
221,79	21,235
222,01	1394,569
222,22	193,882
222,44	-73,371
222,65	109,579
222,87	640,350
223,09	152,742
223,30	135,074
223,52	181,532
223,73	166,988
223,95	7,282
224,16	211,072
224,38	391,872
224,60	78,904
224,81	-40,209
225,03	84,989
225,24	122,211
225,46	75,864
225,67	-15,575
225,89	-40,353
226,10	498,102
226,32	1157,360
226,54	-16,378
226,75	-72,511
226,97	147,075
227,18	165,019
227,40	-3,627
227,61	68,962
227,83	41,497
228,04	87,195
228,26	80,164
228,47	57,952
228,69	261,995
228,91	115,065
229,12	92,159
229,34	35,910
229,55	46,433
229,77	10,594
229,98	14,447
230,20	53,911
230,41	24,269
230,63	129,941
230,84	-45,091
231,06	33,647
231,27	33,008
231,49	45,029
231,71	17,812
231,92	19,836
232,14	11,631
232,35	95,916
232,57	11,681
232,78	30,382
233,00	72,500
233,21	9,790
233,43	12,471
233,64	19,642
233,86	43,893
234,07	13,485
234,29	27,311
234,50	29,153
234,72	41,095
234,93	29,523
235,15	29,126
235,36	17,345
235,58	34,008
235,79	38,153
236,01	11,712
236,22	14,019
236,44	46,067
236,65	19,962
236,87	27,496
237,08	9,536
237,30	2,610
237,51	35,737
237,73	-3,041
237,94	13,052
238,16	15,816
238,37	21,249
238,59	16,635
238,80	21,909
239,02	7,962
239,23	25,398
239,45	-5,282
239,66	21,662
239,88	37,435
240,09	25,285
240,31	10,219
240,52	6,011
240,74	14,785
240,95	10,539
241,17	4,558
241,38	6,148
241,60	6,143
241,81	23,010
242,03	9,152
242,24	9,401
242,46	25,188
242,67	1,942
242,89	12,616
243,10	18,923
243,32	11,732
243,53	17,990
243,75	7,182
243,96	17,887
244,18	21,017
244,39	12,602
244,60	6,215
244,82	5,721
245,03	17,938
245,25	11,879
245,46	30,580
245,68	10,761
245,89	19,461
246,11	17,580
246,32	9,129
246,54	8,323
246,75	11,069
246,97	15,425
247,18	22,491
247,39	2,005
247,61	9,647
247,82	9,921
248,04	3,372
248,25	9,569
248,47	16,403
248,68	15,086
248,90	2,124
249,11	11,708
249,33	20,143
249,54	11,649
249,75	10,869
249,97	4,766
250,18	11,708
250,40	16,398
250,61	-4,127
250,83	5,033
251,04	7,882
251,25	11,328
251,47	6,627
251,68	15,177
251,90	7,159
252,11	11,332
252,33	4,709
252,54	5,884
252,76	4,781
252,97	4,988
253,18	3,681
253,40	8,525
253,61	5,499
253,83	13,400
254,04	7,893
254,25	8,763
254,47	0,353
254,68	7,006
254,90	5,670
255,11	11,443
255,33	9,304
255,54	5,713
255,75	6,745
255,97	7,518
256,18	3,027
256,40	8,594
256,61	11,964
256,82	1,592
257,04	10,265
257,25	6,047
257,47	7,932
257,68	4,615
257,89	10,715
258,11	5,963
258,32	7,264
258,54	7,195
258,75	10,099
258,96	10,401
259,18	6,044
259,39	5,187
259,61	10,345
259,82	9,456
260,03	9,265
260,25	8,043
260,46	4,471
260,68	7,246
260,89	5,270
261,10	3,836
261,32	8,498
261,53	7,758
261,75	9,099
261,96	1,861
262,17	13,622
262,39	12,140
262,60	-0,295
262,81	1,360
263,03	15,243
263,24	7,909
263,46	2,819
263,67	3,472
263,88	7,550
264,10	8,902
264,31	3,391
264,52	10,021
264,74	10,491
264,95	9,399
265,17	8,169
265,38	4,841
265,59	12,376
265,81	10,432
266,02	0,109
266,23	0,949
266,45	10,973
266,66	12,563
266,87	10,782
267,09	5,440
267,30	10,319
267,52	8,636
267,73	7,174
267,94	7,872
268,16	9,095
268,37	3,800
268,58	7,078
268,80	5,032
269,01	6,609
269,22	8,513
269,44	6,064
269,65	11,332
269,86	-0,504
270,08	6,931
270,29	4,078
270,50	10,075
270,72	9,637
270,93	8,611
271,14	4,191
271,36	6,924
271,57	8,550
271,78	9,308
272,00	12,155
272,21	7,479
272,42	10,013
272,64	9,720
272,85	7,506
273,06	4,490
273,28	7,206
273,49	8,172
273,70	9,121
273,92	10,325
274,13	8,035
274,34	4,196
274,56	9,309
274,77	4,975
274,98	8,859
275,20	6,551
275,41	7,351
275,62	6,456
275,84	6,868
276,05	13,275
276,26	5,386
276,47	1,971
276,69	8,417
276,90	6,620
277,11	6,113
277,33	3,495
277,54	10,190
277,75	8,992
277,97	3,902
278,18	4,844
278,39	9,303
278,61	8,895
278,82	7,902
279,03	7,906
279,24	5,403
279,46	8,037
279,67	9,933
279,88	5,712
280,10	11,059
280,31	3,457
280,52	8,146
280,73	5,002
280,95	8,671
281,16	8,791
281,37	4,909
281,59	10,755
281,80	13,135
282,01	5,283
282,22	5,350
282,44	4,486
282,65	14,079
282,86	8,251
283,08	6,685
283,29	6,070
283,50	6,464
283,71	8,275
283,93	3,685
284,14	9,129
284,35	6,106
284,56	5,933
284,78	5,436
284,99	7,174
285,20	8,872
285,42	7,589
285,63	6,731
285,84	4,300
286,05	3,248
286,27	4,914
286,48	2,164
286,69	4,056
286,90	5,309
287,12	5,354
287,33	3,502
287,54	5,921
287,75	7,283
287,97	9,439
288,18	5,143
288,39	0,832
288,60	6,291
288,82	8,056
289,03	7,015
289,24	8,168
289,45	10,564
289,67	6,187
289,88	3,060
290,09	6,172
290,30	7,225
290,52	6,548
290,73	5,404
290,94	2,109
291,15	6,753
291,37	7,717
291,58	5,080
291,79	7,573
292,00	8,680
292,21	8,715
292,43	4,506
292,64	3,566
292,85	5,724
293,06	6,500
293,28	5,435
293,49	4,797
293,70	11,025
293,91	6,300
294,12	5,675
294,34	8,040
294,55	4,107
294,76	5,232
294,97	8,356
295,19	2,865
295,40	6,753
295,61	6,888
295,82	2,932
296,03	7,290
296,25	7,140
296,46	2,320
296,67	4,806
296,88	2,449
297,09	7,561
297,31	4,718
297,52	7,037
297,73	5,099
297,94	7,133
298,15	8,443
298,37	6,503
298,58	6,003
298,79	7,764
299,00	3,372
299,21	3,398
299,43	6,072
299,64	10,905
299,85	7,268
300,06	4,121
300,27	4,794
300,49	9,753
300,70	6,155
300,91	5,460
301,12	7,103
301,33	9,982
301,54	2,352
301,76	8,195
301,97	4,173
302,18	5,765
302,39	9,098
302,60	6,241
302,82	6,182
303,03	10,305
303,24	6,725
303,45	5,859
303,66	5,606
303,87	5,291
304,09	7,145
304,30	5,413
304,51	4,052
304,72	5,459
304,93	8,463
305,14	4,975
305,36	2,995
305,57	3,464
305,78	6,026
305,99	4,201
306,20	7,262
306,41	5,681
306,62	6,536
306,84	6,645
307,05	2,392
307,26	7,523
307,47	11,165
307,68	4,513
307,89	4,389
308,11	7,568
308,32	4,184
308,53	8,769
308,74	4,548
308,95	6,523
309,16	4,541
309,37	10,077
309,59	2,970
309,80	7,144
310,01	6,289
310,22	8,095
310,43	4,070
310,64	6,583
310,85	6,880
311,06	4,346
311,28	5,108
311,49	5,320
311,70	9,689
311,91	2,831
312,12	3,595
312,33	5,945
312,54	8,321
312,75	6,511
312,97	5,040
313,18	6,699
313,39	4,595
313,60	3,880
313,81	5,471
314,02	7,436
314,23	10,536
314,44	1,729
314,65	4,538
314,87	4,908
315,08	4,724
315,29	7,182
315,50	6,397
315,71	8,533
315,92	9,364
316,13	6,360
316,34	6,416
316,55	5,712
316,77	2,491
316,98	6,231
317,19	6,132
317,40	6,822
317,61	10,631
317,82	4,523
318,03	5,598
318,24	5,830
318,45	9,943
318,66	5,875
318,87	1,924
319,09	6,297
319,30	5,675
319,51	8,079
319,72	6,457
319,93	6,303
320,14	9,197
320,35	8,581
320,56	2,501
320,77	6,049
320,98	10,475
321,19	5,552
321,40	6,669
321,62	5,670
321,83	4,225
322,04	5,714
322,25	6,839
322,46	9,055
322,67	9,158
322,88	7,027
323,09	2,476
323,30	7,393
323,51	8,371
323,72	6,623
323,93	4,508
324,14	5,760
324,35	2,599
324,56	3,406
324,77	6,037
324,99	5,456
325,20	2,144
325,41	4,764
325,62	6,962
325,83	3,924
326,04	4,275
326,25	6,670
326,46	3,472
326,67	7,050
326,88	6,779
327,09	6,916
327,30	3,847
327,51	7,707
327,72	6,271
327,93	10,048
328,14	2,412
328,35	3,168
328,56	5,522
328,77	5,405
328,98	6,861
329,19	6,196
329,40	7,791
329,61	5,817
329,82	3,814
330,04	6,108
330,25	2,937
330,46	4,692
330,67	3,642
330,88	5,264
331,09	7,963
331,30	6,757
331,51	4,943
331,72	7,136
331,93	8,885
332,14	4,313
332,35	7,929
332,56	8,697
332,77	4,516
332,98	2,699
333,19	4,698
333,40	5,599
333,61	6,492
333,82	8,394
334,03	6,238
334,24	7,088
334,45	5,060
334,66	8,534
334,87	4,739
335,08	1,477
335,29	2,591
335,50	5,214
335,71	2,379
335,92	8,644
336,13	8,504
336,34	4,181
336,55	7,602
336,76	9,174
336,97	6,322
337,18	6,347
337,39	3,990
337,60	6,859
337,81	5,092
338,02	4,566
338,23	6,599
338,44	6,427
338,65	6,973
338,86	5,622
339,07	4,172
339,28	6,070
339,49	5,472
339,70	4,386
339,91	6,034
340,11	8,642
340,32	7,076
340,53	4,709
340,74	4,886
340,95	4,064
341,16	7,487
341,37	3,715
341,58	4,892
341,79	6,063
342,00	6,426
342,21	4,609
342,42	7,803
342,63	6,206
342,84	2,399
343,05	6,121
343,26	8,425
343,47	5,527
343,68	5,182
343,89	4,626
344,10	4,230
344,31	7,736
344,52	4,701
344,73	3,042
344,94	6,262
345,14	4,708
345,35	5,373
345,56	6,043
345,77	8,214
345,98	5,892
346,19	4,066
346,40	4,204
346,61	7,739
346,82	4,302
347,03	6,243
347,24	9,612
347,45	3,465
347,66	10,296
347,87	5,774
348,08	5,909
348,28	3,215
348,49	5,280
348,70	10,552
348,91	4,800
349,12	3,530
349,33	20,657
349,54	7,850
349,75	8,811
349,96	6,656
350,17	7,369
350,38	2,419
350,59	8,741
350,80	7,724
351,00	8,000
351,21	9,225
351,42	8,715
351,63	4,697
351,84	9,166
352,05	11,361
352,26	3,888
352,47	3,467
352,68	5,347
352,89	7,267
353,09	5,786
353,30	2,340
353,51	6,463
353,72	6,149
353,93	7,912
354,14	4,892
354,35	2,276
354,56	10,906
354,77	5,436
354,98	3,491
355,18	8,191
355,39	8,976
355,60	5,391
355,81	8,294
356,02	4,565
356,23	6,598
356,44	6,199
356,65	6,362
356,85	11,250
357,06	9,165
357,27	6,642
357,48	3,831
357,69	9,247
357,90	6,637
358,11	3,707
358,32	4,885
358,52	6,744
358,73	5,694
358,94	5,588
359,15	6,581
359,36	8,235
359,57	6,333
359,78	7,083
359,98	5,727
360,19	4,812
360,40	7,220
360,61	8,300
360,82	5,898
361,03	11,787
361,24	8,807
361,44	3,652
361,65	7,531
361,86	3,738
362,07	7,985
362,28	6,036
362,49	2,365
362,70	8,109
362,90	7,061
363,11	5,599
363,32	2,427
363,53	8,497
363,74	9,583
363,95	6,200
364,15	4,530
364,36	10,221
364,57	6,757
364,78	3,945
364,99	8,197
365,20	9,326
365,40	7,908
365,61	4,533
365,82	8,865
366,03	6,034
366,24	9,305
366,45	4,809
366,65	5,904
366,86	5,018
367,07	4,628
367,28	4,265
367,49	4,803
367,69	7,468
367,90	7,234
368,11	7,269
368,32	3,894
368,53	7,330
368,73	7,908
368,94	4,793
369,15	5,236
369,36	9,933
369,57	7,938
369,78	6,986
369,98	9,577
370,19	9,457
370,40	6,336
370,61	5,244
370,82	4,977
371,02	7,730
371,23	10,998
371,44	5,264
371,65	6,392
371,85	6,885
372,06	4,117
372,27	5,411
372,48	5,046
372,69	7,061
372,89	5,368
373,10	3,958
373,31	3,293
373,52	5,639
373,73	7,053
373,93	7,476
374,14	6,506
374,35	10,188
374,56	8,480
374,76	5,847
374,97	2,903
375,18	9,075
375,39	6,552
375,60	9,348
375,80	5,092
376,01	3,258
376,22	7,637
376,43	6,725
376,63	4,859
376,84	5,775
377,05	6,234
377,26	6,260
377,46	2,543
377,67	4,707
377,88	6,281
378,09	5,729
378,29	3,797
378,50	8,801
378,71	7,363
378,92	8,472
379,12	4,972
379,33	7,388
379,54	7,309
379,75	8,367
379,95	4,590
380,16	9,882
380,37	10,491
380,58	4,426
380,78	8,183
380,99	3,578
381,20	5,694
381,41	7,464
381,61	8,887
381,82	6,796
382,03	5,909
382,24	7,329
382,44	6,042
382,65	7,680
382,86	7,914
383,06	7,052
383,27	5,112
383,48	2,939
383,69	5,965
383,89	2,447
384,10	6,714
384,31	5,321
384,51	8,029
384,72	7,834
384,93	3,247
385,14	9,443
385,34	6,408
385,55	4,149
385,76	3,197
385,96	8,308
386,17	4,117
386,38	8,858
386,59	10,119
386,79	9,405
387,00	9,297
387,21	8,203
387,41	9,371
387,62	4,482
387,83	11,804
388,03	10,253
388,24	1,890
388,45	7,594
388,66	7,524
388,86	7,139
389,07	3,680
389,28	13,203
389,48	5,542
389,69	5,319
389,90	3,335
390,10	4,607
390,31	10,558
390,52	0,357
390,72	2,504
390,93	7,251
391,14	2,944
391,34	7,519
391,55	10,064
391,76	9,820
391,96	9,775
392,17	5,587
392,38	9,571
392,58	7,595
392,79	7,139
393,00	5,566
393,20	7,876
393,41	7,722
393,62	8,934
393,82	6,962
394,03	6,868
394,24	8,426
394,44	10,845
394,65	8,407
394,86	7,017
395,06	13,032
395,27	6,726
395,48	2,993
395,68	9,439
395,89	8,092
396,10	11,269
396,30	8,004
396,51	4,598
396,72	9,910
396,92	8,932
397,13	7,427
397,34	5,055
397,54	8,199
397,75	6,880
397,95	6,674
398,16	10,719
398,37	8,642
398,57	7,359
398,78	10,500
398,99	10,991
399,19	10,546
399,40	9,733
399,60	6,160
399,81	12,033
400,02	13,873
400,22	12,146
400,43	7,528
400,64	13,108
400,84	7,360
401,05	11,785
401,25	12,342
401,46	11,623
401,67	10,324
401,87	10,082
402,08	4,960
402,29	8,302
402,49	12,922
402,70	14,870
402,90	7,786
403,11	3,686
403,32	11,348
403,52	8,707
403,73	11,495
403,93	14,075
404,14	14,777
404,35	9,929
404,55	9,303
404,76	11,061
404,96	15,434
405,17	14,868
405,38	16,086
405,58	11,619
405,79	13,680
405,99	9,074
406,20	12,855
406,40	8,404
406,61	15,206
406,82	9,650
407,02	12,262
407,23	11,430
407,43	11,310
407,64	10,700
407,85	13,560
408,05	8,562
408,26	20,613
408,46	14,308
408,67	10,481
408,87	13,569
409,08	13,870
409,29	22,094
409,49	16,186
409,70	15,457
409,90	14,238
410,11	14,958
410,31	19,761
410,52	14,781
410,72	13,271
410,93	18,199
411,14	14,714
411,34	15,158
411,55	16,018
411,75	19,260
411,96	17,336
412,16	16,054
412,37	14,367
412,57	15,575
412,78	17,345
412,99	13,185
413,19	16,664
413,40	18,085
413,60	14,865
413,81	15,553
414,01	17,175
414,22	12,177
414,42	16,491
414,63	15,808
414,83	24,079
415,04	20,893
415,24	15,814
415,45	15,794
415,65	14,481
415,86	23,401
416,07	16,909
416,27	18,628
416,48	21,542
416,68	22,254
416,89	14,654
417,09	17,974
417,30	20,082
417,50	16,676
417,71	19,079
417,91	18,819
418,12	15,753
418,32	19,332
418,53	17,061
418,73	17,260
418,94	18,202
419,14	19,412
419,35	17,830
419,55	21,293
419,76	21,154
419,96	15,980
420,17	17,245
420,37	18,638
420,58	22,558
420,78	24,401
420,99	20,597
421,19	21,923
421,40	23,026
421,60	21,826
421,81	16,642
422,01	22,460
422,22	19,167
422,42	24,091
422,63	22,153
422,83	19,518
423,04	24,992
423,24	27,519
423,45	19,267
423,65	25,518
423,86	24,214
424,06	21,096
424,27	22,325
424,47	18,336
424,67	17,957
424,88	23,043
425,08	21,241
425,29	29,745
425,49	18,020
425,70	13,229
425,90	20,348
426,11	19,882
426,31	23,667
426,52	22,854
426,72	23,717
426,93	21,955
427,13	25,105
427,33	23,945
427,54	22,517
427,74	24,561
427,95	27,095
428,15	18,574
428,36	22,345
428,56	24,385
428,77	25,208
428,97	22,669
429,18	23,102
429,38	22,277
429,58	23,064
429,79	25,137
429,99	22,425
430,20	18,189
430,40	27,452
430,61	19,069
430,81	22,645
431,01	24,709
431,22	24,709
431,42	29,569
431,63	18,487
431,83	24,418
432,04	23,525
432,24	26,923
432,44	21,059
432,65	23,717
432,85	20,803
433,06	22,050
433,26	20,265
433,47	22,912
433,67	23,624
433,87	22,755
434,08	21,825
434,28	21,369
434,49	16,943
434,69	24,488
434,89	19,368
435,10	23,181
435,30	23,516
435,51	20,841
435,71	20,095
435,91	22,502
436,12	24,471
436,32	22,290
436,53	23,123
436,73	18,835
436,93	24,949
437,14	22,571
437,34	21,931
437,55	20,991
437,75	20,660
437,95	25,146
438,16	22,463
438,36	22,085
438,57	21,129
438,77	22,164
438,97	24,538
439,18	27,936
439,38	20,927
439,58	21,968
439,79	25,129
439,99	20,467
440,20	26,868
440,40	24,801
440,60	18,742
440,81	29,540
441,01	22,491
441,21	26,642
441,42	27,041
441,62	23,197
441,83	23,019
442,03	23,890
442,23	21,982
442,44	25,322
442,64	25,359
442,84	21,002
443,05	23,646
443,25	22,721
443,45	24,253
443,66	22,695
443,86	22,049
444,06	21,893
444,27	25,063
444,47	24,090
444,67	25,927
444,88	27,285
445,08	27,557
445,28	25,588
445,49	20,926
445,69	19,119
445,90	28,236
446,10	26,020
446,30	26,049
446,51	27,064
446,71	31,163
446,91	30,207
447,12	30,648
447,32	23,388
447,52	28,895
447,72	26,382
447,93	28,666
448,13	19,003
448,33	33,741
448,54	28,242
448,74	20,760
448,94	27,382
449,15	30,964
449,35	27,801
449,55	22,209
449,76	30,459
449,96	25,622
450,16	26,625
450,37	23,040
450,57	25,806
450,77	24,385
450,98	26,894
451,18	25,668
451,38	27,230
451,58	26,723
451,79	28,535
451,99	25,474
452,19	27,032
452,40	27,530
452,60	25,464
452,80	26,410
