Fichero De Datos De SpectraSuite
++++++++++++++++++++++++++++++++++++
Fecha: Wed Apr 22 11:32:28 CEST 2009
Usuario: evoflor
Presente Oscuro Del Espectro: Sí
La Referencia de Presente Del Espectro De: Sí
Muestreados de los componentes de Número de espectros: 1
Espectrómetros: USB4F02353
Tiempo de integración (usec): 500000 (USB4F02353)
Promedio de Espectros Hechos un: 5 (USB4F02353)
El Alisar Del Furgón: 0 (USB4F02353)
Párrafo de de Corregir del la del del de Eléctrica del obscuridad: Sí (USB4F02353)
Estrobo/Lámpara Permitido: No (USB4F02353)
Correct for Detector Non-linearity: No (USB4F02353)
Párrafo de de Corregir del la del del de Externa del luz: No (USB4F02353)
Procesado del espectro de Número de pixeles en: 3648
>>>>> Comienza Data<<<<< Espectral Procesado Del EL
177,79	262,429
178,00	262,429
178,22	262,429
178,44	1666,319
178,66	-299,562
178,88	98,160
179,09	-438,574
179,31	152,635
179,53	324,659
179,75	307,726
179,96	911,767
180,18	-142,662
180,40	308,169
180,62	302,029
180,83	-53,864
181,05	126,037
181,27	-85065,000
181,49	-163,402
181,70	424,096
181,92	815,558
182,14	570,678
182,36	166,033
182,58	499,350
182,79	1078,862
183,01	-139,040
183,23	54,102
183,45	-76,200
183,66	-296,748
183,88	595,676
184,10	-1890,273
184,32	212,785
184,53	176,250
184,75	-202,084
184,97	56,337
185,18	-234,333
185,40	-391,659
185,62	163,944
185,84	56,037
186,05	160,994
186,27	-87,133
186,49	4621,731
186,71	-62,218
186,92	212,775
187,14	-109,604
187,36	68,725
187,58	139,107
187,79	6,132
188,01	255,278
188,23	-267,230
188,45	58,577
188,66	243,147
188,88	-1808,455
189,10	-1381,650
189,31	5,350
189,53	-48,422
189,75	258,784
189,97	50,250
190,18	-260,665
190,40	431,559
190,62	-119,055
190,83	-151,488
191,05	265,445
191,27	91,329
191,49	395,458
191,70	32,380
191,92	-339,534
192,14	-30,786
192,35	528,820
192,57	1864,714
192,79	18,340
193,01	200,822
193,22	137,761
193,44	-186,630
193,66	117,531
193,87	35,685
194,09	-29,886
194,31	221,024
194,53	764,790
194,74	99,460
194,96	48,932
195,18	111,455
195,39	-321,807
195,61	-120,977
195,83	-220,141
196,04	88,392
196,26	-196,809
196,48	12,887
196,70	297,942
196,91	51,821
197,13	87,759
197,35	12,926
197,56	358,096
197,78	1904,216
198,00	-147,797
198,21	439,150
198,43	-735,262
198,65	204,995
198,86	519,658
199,08	-60,443
199,30	263,289
199,51	-584,902
199,73	117,496
199,95	226,151
200,16	649,096
200,38	75,135
200,60	123,916
200,81	394,143
201,03	326,535
201,25	-1363,650
201,46	153,234
201,68	77,630
201,90	3099,205
202,11	-262,844
202,33	243,205
202,55	669,562
202,76	-57,168
202,98	233,676
203,20	-32,524
203,41	-476,132
203,63	102,554
203,85	-86865,000
204,06	38,666
204,28	-254,855
204,50	199,771
204,71	299,761
204,93	-233,880
205,15	345,678
205,36	-231,482
205,58	251,372
205,80	-343,766
206,01	89,020
206,23	182,175
206,45	216,170
206,66	157,549
206,88	38,546
207,10	156,511
207,31	293,861
207,53	173,614
207,75	43,618
207,96	1064,664
208,18	-248,063
208,39	121,290
208,61	4050,429
208,83	-160,791
209,04	305,493
209,26	-22,880
209,48	229,950
209,69	141,556
209,91	670,490
210,13	58,388
210,34	94,831
210,56	195,950
210,77	-1640,669
210,99	144,355
211,21	6115,588
211,42	-120,241
211,64	-50,869
211,86	292,414
212,07	242,579
212,29	227,082
212,50	132,322
212,72	-53,596
212,94	189,549
213,15	83,800
213,37	138,628
213,58	-138,725
213,80	336,964
214,02	7915,588
214,23	306,323
214,45	320,213
214,67	356,524
214,88	-297,534
215,10	-346,241
215,31	-61,867
215,53	19,466
215,75	132,287
215,96	1439,534
216,18	107,958
216,39	195,918
216,61	478,526
216,83	536,451
217,04	1764,775
217,26	41,395
217,47	71,652
217,69	258,804
217,91	56,791
218,12	-98565,000
218,34	51,107
218,55	464,363
218,77	114,621
218,99	129,424
219,20	-68,001
219,42	334,093
219,63	-87,345
219,85	13,086
220,06	8,712
220,28	129,373
220,50	93,887
220,71	86,630
220,93	3201,226
221,14	-1624,650
221,36	21,482
221,58	-30,300
221,79	251,731
222,01	1229,871
222,22	1027,401
222,44	-35,225
222,65	127,824
222,87	204,650
223,09	89,824
223,30	55,139
223,52	178,698
223,73	128,853
223,95	75,444
224,16	138,278
224,38	229,301
224,60	85,043
224,81	115,928
225,03	124,411
225,24	149,583
225,46	96,453
225,67	9,460
225,89	85,425
226,10	389,051
226,32	687,720
226,54	62,931
226,75	-40,751
226,97	159,040
227,18	157,323
227,40	9,329
227,61	38,983
227,83	-40,768
228,04	120,635
228,26	63,089
228,47	32,228
228,69	170,333
228,91	24,593
229,12	90,075
229,34	51,699
229,55	79,304
229,77	46,018
229,98	-3,635
230,20	108,987
230,41	-24,113
230,63	82,952
230,84	99,679
231,06	8,243
231,27	30,349
231,49	55,392
231,71	13,169
231,92	12,799
232,14	24,513
232,35	82,861
232,57	41,717
232,78	9,411
233,00	16,077
233,21	37,340
233,43	19,051
233,64	15,595
233,86	31,461
234,07	18,574
234,29	20,517
234,50	21,622
234,72	29,899
234,93	10,581
235,15	22,743
235,36	30,389
235,58	19,871
235,79	28,330
236,01	14,655
236,22	4,876
236,44	32,128
236,65	23,368
236,87	31,630
237,08	-2,069
237,30	-10,884
237,51	33,156
237,73	-7,308
237,94	13,155
238,16	24,286
238,37	11,035
238,59	5,581
238,80	20,860
239,02	13,644
239,23	16,610
239,45	-3,478
239,66	21,330
239,88	26,237
240,09	21,864
240,31	8,808
240,52	-0,046
240,74	16,923
240,95	9,574
241,17	12,831
241,38	11,912
241,60	10,107
241,81	34,987
242,03	1,438
242,24	11,395
242,46	21,825
242,67	5,850
242,89	8,540
243,10	15,133
243,32	18,835
243,53	12,761
243,75	7,166
243,96	9,846
244,18	16,851
244,39	15,226
244,60	5,429
244,82	4,407
245,03	13,816
245,25	15,251
245,46	19,476
245,68	2,559
245,89	18,598
246,11	16,624
246,32	11,831
246,54	3,661
246,75	10,807
246,97	13,247
247,18	16,911
247,39	-1,231
247,61	15,250
247,82	12,256
248,04	4,375
248,25	10,796
248,47	14,950
248,68	9,155
248,90	3,596
249,11	7,314
249,33	19,563
249,54	8,791
249,75	13,179
249,97	1,993
250,18	14,864
250,40	16,934
250,61	-1,227
250,83	2,852
251,04	5,679
251,25	9,952
251,47	1,334
251,68	11,315
251,90	9,294
252,11	7,323
252,33	5,613
252,54	4,283
252,76	2,282
252,97	2,549
253,18	1,143
253,40	6,904
253,61	3,303
253,83	11,022
254,04	9,373
254,25	6,582
254,47	6,949
254,68	5,054
254,90	4,817
255,11	7,928
255,33	7,650
255,54	1,104
255,75	5,840
255,97	5,736
256,18	4,206
256,40	6,053
256,61	7,662
256,82	-3,414
257,04	11,975
257,25	1,762
257,47	7,635
257,68	3,765
257,89	7,752
258,11	6,482
258,32	10,599
258,54	6,055
258,75	11,985
258,96	9,816
259,18	7,135
259,39	2,342
259,61	9,709
259,82	3,316
260,03	4,381
260,25	4,109
260,46	4,660
260,68	6,194
260,89	3,381
261,10	4,110
261,32	4,053
261,53	5,485
261,75	6,094
261,96	1,103
262,17	12,487
262,39	10,195
262,60	1,242
262,81	-1,058
263,03	12,168
263,24	5,223
263,46	1,169
263,67	4,152
263,88	4,517
264,10	4,115
264,31	3,381
264,52	6,341
264,74	8,344
264,95	2,334
265,17	4,683
265,38	3,878
265,59	10,910
265,81	7,330
266,02	3,047
266,23	1,899
266,45	10,541
266,66	11,697
266,87	6,006
267,09	2,447
267,30	8,670
267,52	6,196
267,73	5,540
267,94	4,257
268,16	6,848
268,37	4,781
268,58	2,802
268,80	4,943
269,01	3,731
269,22	6,896
269,44	7,110
269,65	6,227
269,86	0,134
270,08	5,377
270,29	4,713
270,50	6,113
270,72	7,357
270,93	4,216
271,14	4,256
271,36	4,238
271,57	10,653
271,78	6,093
272,00	7,394
272,21	9,325
272,42	3,468
272,64	6,095
272,85	1,375
273,06	3,725
273,28	3,279
273,49	3,966
273,70	6,714
273,92	4,834
274,13	7,678
274,34	1,884
274,56	6,147
274,77	0,980
274,98	5,491
275,20	5,616
275,41	5,417
275,62	3,320
275,84	4,018
276,05	8,449
276,26	-0,123
276,47	1,857
276,69	8,157
276,90	4,972
277,11	5,340
277,33	4,180
277,54	5,135
277,75	6,889
277,97	2,659
278,18	3,371
278,39	8,873
278,61	3,754
278,82	5,916
279,03	8,883
279,24	2,787
279,46	3,475
279,67	6,973
279,88	5,031
280,10	9,895
280,31	4,324
280,52	6,116
280,73	1,204
280,95	5,882
281,16	6,306
281,37	2,092
281,59	6,998
281,80	9,297
282,01	5,175
282,22	1,480
282,44	0,491
282,65	12,426
282,86	3,190
283,08	4,184
283,29	4,171
283,50	4,478
283,71	6,801
283,93	7,047
284,14	6,889
284,35	4,113
284,56	4,464
284,78	2,829
284,99	3,878
285,20	10,087
285,42	7,217
285,63	4,957
285,84	0,939
286,05	2,571
286,27	7,082
286,48	3,198
286,69	3,289
286,90	3,792
287,12	4,889
287,33	1,571
287,54	3,746
287,75	6,686
287,97	4,562
288,18	2,242
288,39	1,028
288,60	5,941
288,82	5,682
289,03	3,317
289,24	6,521
289,45	7,071
289,67	4,426
289,88	3,366
290,09	6,648
290,30	6,406
290,52	5,892
290,73	2,867
290,94	1,443
291,15	6,262
291,37	7,092
291,58	1,756
291,79	3,804
292,00	5,503
292,21	7,478
292,43	2,176
292,64	4,247
292,85	2,665
293,06	8,424
293,28	1,302
293,49	2,046
293,70	5,580
293,91	2,857
294,12	5,101
294,34	6,675
294,55	5,109
294,76	5,989
294,97	5,001
295,19	4,013
295,40	3,479
295,61	8,790
295,82	1,560
296,03	4,580
296,25	5,935
296,46	4,819
296,67	0,517
296,88	3,708
297,09	4,583
297,31	3,874
297,52	5,315
297,73	1,657
297,94	6,294
298,15	4,188
298,37	5,280
298,58	5,897
298,79	5,489
299,00	2,282
299,21	2,384
299,43	2,687
299,64	8,786
299,85	7,434
300,06	3,503
300,27	3,435
300,49	9,747
300,70	4,777
300,91	4,179
301,12	2,449
301,33	6,264
301,54	5,573
301,76	5,993
301,97	1,733
302,18	1,530
302,39	6,214
302,60	5,541
302,82	5,759
303,03	8,709
303,24	4,796
303,45	3,931
303,66	2,632
303,87	2,837
304,09	5,011
304,30	2,394
304,51	5,631
304,72	3,742
304,93	7,494
305,14	5,208
305,36	2,330
305,57	2,172
305,78	3,334
305,99	5,112
306,20	3,281
306,41	3,527
306,62	2,376
306,84	1,698
307,05	1,506
307,26	5,718
307,47	9,048
307,68	3,098
307,89	3,725
308,11	5,155
308,32	2,897
308,53	5,054
308,74	2,228
308,95	4,227
309,16	5,491
309,37	5,598
309,59	2,915
309,80	6,866
310,01	3,486
310,22	6,413
310,43	3,099
310,64	6,721
310,85	5,487
311,06	1,348
311,28	4,258
311,49	5,726
311,70	7,169
311,91	3,090
312,12	2,405
312,33	4,936
312,54	5,095
312,75	3,657
312,97	2,758
313,18	5,798
313,39	5,295
313,60	3,419
313,81	4,399
314,02	5,769
314,23	6,154
314,44	1,121
314,65	2,647
314,87	5,505
315,08	5,348
315,29	6,719
315,50	6,638
315,71	5,937
315,92	7,241
316,13	5,735
316,34	4,696
316,55	6,587
316,77	-0,315
316,98	5,232
317,19	2,236
317,40	6,596
317,61	8,016
317,82	3,583
318,03	1,377
318,24	4,973
318,45	6,355
318,66	4,824
318,87	-0,207
319,09	6,605
319,30	6,587
319,51	4,289
319,72	5,065
319,93	8,243
320,14	5,324
320,35	7,012
320,56	2,967
320,77	2,636
320,98	9,477
321,19	3,590
321,40	5,240
321,62	5,949
321,83	4,986
322,04	3,287
322,25	3,021
322,46	9,924
322,67	5,317
322,88	3,582
323,09	4,143
323,30	7,518
323,51	7,522
323,72	6,214
323,93	3,150
324,14	3,582
324,35	1,290
324,56	1,252
324,77	3,120
324,99	1,654
325,20	2,290
325,41	4,094
325,62	5,989
325,83	2,351
326,04	3,841
326,25	6,043
326,46	2,644
326,67	3,786
326,88	4,972
327,09	3,893
327,30	2,405
327,51	5,505
327,72	6,050
327,93	4,881
328,14	0,811
328,35	3,062
328,56	5,841
328,77	4,085
328,98	6,704
329,19	4,861
329,40	6,246
329,61	4,147
329,82	2,904
330,04	4,099
330,25	3,667
330,46	5,444
330,67	4,153
330,88	4,214
331,09	6,527
331,30	4,444
331,51	3,931
331,72	3,898
331,93	7,956
332,14	2,790
332,35	5,812
332,56	0,653
332,77	5,983
332,98	1,800
333,19	4,087
333,40	6,175
333,61	2,276
333,82	7,512
334,03	3,910
334,24	5,590
334,45	5,269
334,66	6,458
334,87	3,646
335,08	1,206
335,29	4,201
335,50	3,655
335,71	1,403
335,92	5,516
336,13	6,979
336,34	0,900
336,55	4,653
336,76	8,345
336,97	3,685
337,18	2,861
337,39	3,566
337,60	6,404
337,81	4,094
338,02	5,409
338,23	5,131
338,44	5,108
338,65	4,149
338,86	6,688
339,07	1,158
339,28	6,352
339,49	3,984
339,70	1,777
339,91	4,129
340,11	5,252
340,32	4,465
340,53	3,363
340,74	0,121
340,95	4,031
341,16	4,893
341,37	2,867
341,58	1,841
341,79	6,276
342,00	1,588
342,21	3,003
342,42	5,103
342,63	6,254
342,84	1,770
343,05	4,841
343,26	7,912
343,47	2,076
343,68	0,889
343,89	3,962
344,10	5,780
344,31	6,936
344,52	5,251
344,73	1,788
344,94	5,479
345,14	4,122
345,35	7,290
345,56	5,981
345,77	1,838
345,98	5,995
346,19	4,572
346,40	3,395
346,61	3,804
346,82	4,464
347,03	5,702
347,24	6,493
347,45	3,571
347,66	7,755
347,87	3,182
348,08	6,242
348,28	1,783
348,49	6,037
348,70	4,990
348,91	6,424
349,12	3,181
349,33	19,282
349,54	2,914
349,75	7,458
349,96	3,045
350,17	4,618
350,38	1,711
350,59	7,402
350,80	7,354
351,00	7,648
351,21	9,978
351,42	3,651
351,63	3,423
351,84	6,979
352,05	6,185
352,26	4,694
352,47	2,526
352,68	7,107
352,89	7,551
353,09	7,235
353,30	-0,225
353,51	6,067
353,72	9,669
353,93	7,175
354,14	3,129
354,35	6,176
354,56	5,910
354,77	8,425
354,98	0,404
355,18	6,774
355,39	9,451
355,60	4,259
355,81	5,853
356,02	5,190
356,23	7,518
356,44	3,524
356,65	4,441
356,85	10,746
357,06	6,001
357,27	8,348
357,48	2,714
357,69	5,055
357,90	6,600
358,11	2,424
358,32	0,224
358,52	6,590
358,73	6,662
358,94	0,883
359,15	6,634
359,36	5,584
359,57	5,416
359,78	5,707
359,98	2,838
360,19	1,793
360,40	3,922
360,61	7,029
360,82	3,657
361,03	7,465
361,24	7,913
361,44	3,797
361,65	2,952
361,86	3,516
362,07	6,410
362,28	2,070
362,49	4,762
362,70	5,318
362,90	8,445
363,11	5,741
363,32	3,714
363,53	6,232
363,74	10,132
363,95	6,163
364,15	4,877
364,36	8,198
364,57	6,666
364,78	4,949
364,99	3,883
365,20	6,771
365,40	5,471
365,61	4,093
365,82	6,930
366,03	8,251
366,24	4,411
366,45	2,771
366,65	7,457
366,86	4,829
367,07	3,598
367,28	4,624
367,49	5,835
367,69	10,257
367,90	4,752
368,11	6,059
368,32	8,670
368,53	9,069
368,73	9,192
368,94	8,507
369,15	4,345
369,36	5,854
369,57	5,683
369,78	4,450
369,98	9,148
370,19	10,915
370,40	7,126
370,61	5,019
370,82	6,946
371,02	7,412
371,23	10,325
371,44	7,277
371,65	8,040
371,85	10,804
372,06	6,110
372,27	4,326
372,48	7,261
372,69	9,213
372,89	8,619
373,10	3,145
373,31	8,852
373,52	7,987
373,73	9,927
373,93	7,744
374,14	5,810
374,35	8,105
374,56	9,751
374,76	7,191
374,97	5,650
375,18	8,659
375,39	5,090
375,60	9,497
375,80	7,261
376,01	1,063
376,22	9,147
376,43	8,684
376,63	3,818
376,84	7,487
377,05	9,889
377,26	6,796
377,46	2,190
377,67	5,469
377,88	8,420
378,09	8,728
378,29	5,903
378,50	11,404
378,71	10,419
378,92	5,236
379,12	5,721
379,33	7,286
379,54	10,508
379,75	8,486
379,95	5,701
380,16	10,243
380,37	12,481
380,58	8,758
380,78	10,543
380,99	6,713
381,20	10,552
381,41	9,492
381,61	9,992
381,82	7,847
382,03	5,051
382,24	11,295
382,44	9,139
382,65	8,041
382,86	7,011
383,06	9,630
383,27	10,519
383,48	9,117
383,69	11,058
383,89	12,430
384,10	12,760
384,31	8,438
384,51	13,687
384,72	15,573
384,93	9,981
385,14	12,359
385,34	10,283
385,55	9,805
385,76	5,426
385,96	12,699
386,17	8,730
386,38	16,946
386,59	12,814
386,79	9,922
387,00	16,047
387,21	15,906
387,41	13,436
387,62	10,026
387,83	17,870
388,03	14,723
388,24	6,780
388,45	9,580
388,66	13,468
388,86	12,803
389,07	13,182
389,28	17,723
389,48	11,521
389,69	11,292
389,90	8,506
390,10	16,726
390,31	15,426
390,52	8,580
390,72	10,719
390,93	15,231
391,14	10,562
391,34	15,616
391,55	16,471
391,76	18,651
391,96	13,877
392,17	12,773
392,38	16,631
392,58	14,933
392,79	10,191
393,00	8,863
393,20	13,070
393,41	10,741
393,62	15,674
393,82	14,322
394,03	14,971
394,24	16,199
394,44	20,793
394,65	18,361
394,86	14,036
395,06	17,316
395,27	12,711
395,48	14,217
395,68	17,434
395,89	15,355
396,10	13,894
396,30	15,153
396,51	14,342
396,72	15,433
396,92	11,523
397,13	15,472
397,34	13,209
397,54	20,267
397,75	11,282
397,95	14,522
398,16	14,751
398,37	13,398
398,57	17,306
398,78	18,842
398,99	18,194
399,19	18,733
399,40	18,392
399,60	16,590
399,81	17,823
400,02	16,898
400,22	20,162
400,43	15,257
400,64	16,962
400,84	16,441
401,05	20,053
401,25	18,903
401,46	11,174
401,67	16,629
401,87	17,011
402,08	15,387
402,29	15,141
402,49	20,984
402,70	19,610
402,90	15,347
403,11	17,180
403,32	21,394
403,52	19,643
403,73	16,102
403,93	19,644
404,14	24,087
404,35	19,694
404,55	17,395
404,76	20,272
404,96	21,394
405,17	20,988
405,38	24,526
405,58	16,848
405,79	22,344
405,99	24,482
406,20	20,477
406,40	19,785
406,61	20,351
406,82	19,264
407,02	22,617
407,23	20,475
407,43	23,358
407,64	18,037
407,85	17,380
408,05	16,879
408,26	28,364
408,46	25,263
408,67	16,814
408,87	18,658
409,08	19,744
409,29	25,317
409,49	24,783
409,70	22,455
409,90	21,719
410,11	21,455
410,31	24,942
410,52	20,633
410,72	20,448
410,93	25,674
411,14	22,323
411,34	18,126
411,55	24,415
411,75	25,866
411,96	24,109
412,16	22,109
412,37	25,019
412,57	23,093
412,78	27,158
412,99	21,100
413,19	24,900
413,40	23,832
413,60	22,851
413,81	20,640
414,01	24,209
414,22	22,347
414,42	18,040
414,63	18,065
414,83	29,795
415,04	27,131
415,24	23,902
415,45	23,049
415,65	20,783
415,86	26,436
416,07	24,805
416,27	25,110
416,48	27,580
416,68	26,362
416,89	21,244
417,09	25,159
417,30	28,451
417,50	24,882
417,71	26,516
417,91	26,943
418,12	22,808
418,32	23,598
418,53	21,576
418,73	21,780
418,94	26,024
419,14	24,226
419,35	20,505
419,55	24,358
419,76	28,236
419,96	22,549
420,17	22,966
420,37	24,940
420,58	27,319
420,78	19,227
420,99	26,136
421,19	26,349
421,40	27,599
421,60	28,293
421,81	23,885
422,01	26,082
422,22	29,159
422,42	23,831
422,63	24,438
422,83	22,892
423,04	31,364
423,24	28,405
423,45	25,817
423,65	28,684
423,86	32,005
424,06	31,431
424,27	22,690
424,47	24,741
424,67	22,280
424,88	27,095
425,08	26,811
425,29	31,392
425,49	23,910
425,70	19,704
425,90	24,193
426,11	24,539
426,31	26,614
426,52	25,637
426,72	27,034
426,93	27,584
427,13	27,241
427,33	27,149
427,54	29,995
427,74	30,079
427,95	35,741
428,15	25,139
428,36	26,203
428,56	25,166
428,77	26,592
428,97	29,454
429,18	23,700
429,38	24,606
429,58	26,690
429,79	27,791
429,99	25,287
430,20	20,046
430,40	27,444
430,61	26,183
430,81	21,494
431,01	24,460
431,22	28,826
431,42	28,780
431,63	20,659
431,83	25,523
432,04	23,729
432,24	29,514
432,44	25,717
432,65	24,785
432,85	24,235
433,06	27,087
433,26	26,723
433,47	25,282
433,67	22,844
433,87	25,361
434,08	19,658
434,28	20,683
434,49	25,762
434,69	29,881
434,89	21,018
435,10	21,420
435,30	31,296
435,51	23,917
435,71	23,562
435,91	24,952
436,12	23,822
436,32	26,934
436,53	23,413
436,73	24,789
436,93	26,898
437,14	24,834
437,34	26,411
437,55	23,616
437,75	25,756
437,95	30,591
438,16	23,844
438,36	23,753
438,57	20,829
438,77	24,530
438,97	26,236
439,18	27,429
439,38	24,178
439,58	25,426
439,79	23,915
439,99	22,837
440,20	32,170
440,40	25,702
440,60	27,186
440,81	27,289
441,01	27,250
441,21	29,024
441,42	27,864
441,62	27,518
441,83	26,903
442,03	24,341
442,23	30,409
442,44	27,333
442,64	28,654
442,84	26,256
443,05	29,304
443,25	24,907
443,45	31,076
443,66	28,102
443,86	27,256
444,06	27,186
444,27	26,190
444,47	28,505
444,67	25,578
444,88	26,162
445,08	30,005
445,28	28,981
445,49	23,609
445,69	25,813
445,90	30,906
446,10	30,927
446,30	28,032
446,51	28,017
446,71	31,686
446,91	33,256
447,12	36,240
447,32	27,453
447,52	30,412
447,72	28,041
447,93	29,484
448,13	27,557
448,33	34,909
448,54	32,374
448,74	28,037
448,94	30,274
449,15	32,149
449,35	32,472
449,55	25,636
449,76	34,749
449,96	29,892
450,16	30,246
450,37	28,537
450,57	30,795
450,77	28,150
450,98	31,958
451,18	32,840
451,38	31,221
451,58	32,325
451,79	33,523
451,99	34,213
452,19	29,693
452,40	32,017
452,60	27,309
